LabVIEW Measurement	
Writer_Version	2
Reader_Version	2
Separator	Tab
Decimal_Separator	.
Multi_Headings	No
X_Columns	One
Time_Pref	Relative
Operator	MSE_SETUP10
Date	2025/03/17
Time	13:56:45.95574188232421875
***End_of_Header***	
	
Channels	2		
Samples	5000	5000	
Date	1903/12/31	1903/12/31	
Time	18:00:00	18:00:00	
X_Dimension	Time	Time	
X0	0.0000000000000000E+0	0.0000000000000000E+0	
Delta_X	0.100000	0.100000	
***End_of_Header***			
X_Value	FRF Magnitude 1	FRF Phase 1	Comment
0.000000	8185047.114650	3.141593
0.100000	2833.451492	0.345535
0.200000	1544.015190	0.538614
0.300000	190.762748	1.806770
0.400000	365.791039	1.011338
0.500000	1.119819	-0.055832
0.600000	94.983368	-2.145677
0.700000	219.373992	1.832641
0.800000	304.841610	-1.084809
0.900000	781.706644	-0.688406
1.000000	4142.509110	2.324060
1.100000	2026.674176	-2.682778
1.200000	5827.929449	1.593692
1.300000	219.584995	-0.175774
1.400000	328.314858	-0.279081
1.500000	1.416910	-0.157774
1.600000	245.301132	-0.803490
1.700000	234.953953	-2.213477
1.800000	615.835848	-2.182743
1.900000	708.409698	-0.398003
2.000000	11002.905115	1.427714
2.100000	1019.633955	-2.935533
2.200000	549.491817	-1.798069
2.300000	225.917259	-1.953274
2.400000	766.865855	-2.376995
2.500000	1.354194	-0.253322
2.600000	898.366749	-2.844860
2.700000	735.027359	2.735072
2.800000	3288.287819	1.563730
2.900000	6149.200009	-1.848342
3.000000	20118.749055	1.505174
3.100000	11324.542433	1.517452
3.200000	1496.406677	0.974811
3.300000	412.129849	-0.606088
3.400000	1056.410260	2.256346
3.500000	2.026034	-0.271758
3.600000	487.050110	-2.677473
3.700000	379.085985	-1.979905
3.800000	2153.157039	-1.705510
3.900000	2333.636919	-2.699557
4.000000	8027.902657	1.020105
4.100000	1778.421763	-2.311463
4.200000	5209.820990	-2.381990
4.300000	2368.010764	-2.651720
4.400000	3163.362007	-1.758427
4.500000	48455.471474	-2.133153
4.600000	1225.418346	-0.390786
4.700000	3232.673521	-1.028113
4.800000	8423.987705	-1.597031
4.900000	11248.207461	-2.148192
5.000000	25298.519303	0.897863
5.100000	11199.124839	-2.683450
5.200000	14190.745908	-2.651597
5.300000	26898.063501	3.072417
5.400000	23314.342701	2.514573
5.500000	79017.395196	-0.798051
5.600000	13593.144474	1.158120
5.700000	16216.445667	1.872455
5.800000	10803.640054	0.601128
5.900000	8600.462471	1.354377
6.000000	28931.988698	1.212898
6.100000	6512.865564	2.006502
6.200000	9478.889872	1.085259
6.300000	4970.273833	2.145966
6.400000	8363.085832	1.201188
6.500000	44857.513290	0.651173
6.600000	6536.200374	0.752791
6.700000	8472.073376	1.865575
6.800000	7344.760400	1.426951
6.900000	4840.334817	2.381026
7.000000	5244.157551	0.144275
7.100000	4557.194297	1.250911
7.200000	3632.249123	0.531729
7.300000	4067.227498	0.021123
7.400000	6197.070064	1.739066
7.500000	6731.399211	-2.048224
7.600000	5701.078638	1.305183
7.700000	4074.824114	1.252499
7.800000	4069.020612	0.982317
7.900000	5603.785273	0.028503
8.000000	3613.549814	-0.890580
8.100000	3627.943978	1.881224
8.200000	3454.157384	1.093536
8.300000	4522.663532	0.858227
8.400000	2477.626346	0.492658
8.500000	16230.345011	0.321570
8.600000	2391.683712	1.016539
8.700000	3011.738076	1.101877
8.800000	2369.684686	1.627946
8.900000	4643.848023	1.237833
9.000000	1994.446940	2.029756
9.100000	1866.627583	0.341741
9.200000	2244.809752	0.252114
9.300000	1681.891473	1.159838
9.400000	2498.613720	1.069526
9.500000	2534.046309	0.418907
9.600000	4036.388308	0.709643
9.700000	726.141917	-0.619760
9.800000	2293.467644	1.876088
9.900000	2146.183229	0.889852
10.000000	2123.631998	-0.596869
10.100000	840.429747	0.423261
10.200000	1140.854203	1.609995
10.300000	4770.722381	0.711706
10.400000	3019.782709	0.533098
10.500000	6065.882291	0.825616
10.600000	3037.575941	0.856840
10.700000	3324.811786	0.957734
10.800000	1053.650121	2.030282
10.900000	1648.615958	0.756950
11.000000	972.884646	2.499419
11.100000	1437.869060	2.089070
11.200000	474.936527	-0.914044
11.300000	1477.924858	0.428686
11.400000	1302.090939	-0.111611
11.500000	1476.030619	-1.366410
11.600000	1628.328784	0.745935
11.700000	2252.840513	0.777945
11.800000	1570.839157	0.609045
11.900000	387.588566	1.860699
12.000000	2659.678402	0.509734
12.100000	925.808606	1.231459
12.200000	1685.285355	0.688086
12.300000	1521.076092	0.853317
12.400000	3897.161665	0.865684
12.500000	4614.240395	0.790839
12.600000	2436.851329	0.172774
12.700000	611.038912	0.850093
12.800000	1441.667010	0.851874
12.900000	1833.314645	0.571725
13.000000	1506.117208	1.994708
13.100000	1795.703942	0.578852
13.200000	1384.295960	1.171373
13.300000	931.096083	0.346427
13.400000	1158.400106	1.240528
13.500000	3524.633300	0.198592
13.600000	1525.510858	1.385077
13.700000	1416.374529	1.027157
13.800000	2167.493262	1.159956
13.900000	1642.415274	0.749716
14.000000	1948.608442	-0.703576
14.100000	1056.974027	0.952407
14.200000	1173.274583	0.726475
14.300000	2659.232199	0.803784
14.400000	2053.249682	0.218302
14.500000	2900.515831	0.879808
14.600000	1641.112239	0.732827
14.700000	2151.581295	0.654237
14.800000	1677.518662	0.633854
14.900000	835.348381	0.737665
15.000000	2266.373547	0.730736
15.100000	1800.014734	0.836682
15.200000	2100.475220	0.379302
15.300000	1192.045726	1.375325
15.400000	1832.774972	1.303332
15.500000	1018.242436	-0.106602
15.600000	1631.150936	0.424009
15.700000	1838.004669	0.243582
15.800000	971.679701	0.974405
15.900000	1417.858116	0.705269
16.000000	1228.052661	0.340631
16.100000	2203.796401	1.306295
16.200000	2074.276170	0.572684
16.300000	954.969332	0.730086
16.400000	982.571967	0.168960
16.500000	2587.973905	0.092523
16.600000	1210.451225	0.486638
16.700000	1211.003945	1.143502
16.800000	2171.009727	0.967637
16.900000	2065.930848	0.700939
17.000000	305.122879	0.313845
17.100000	1550.857195	0.808185
17.200000	1890.809534	0.649976
17.300000	1400.828693	0.597175
17.400000	1650.484259	0.724310
17.500000	752.802051	0.641558
17.600000	1449.364808	0.729289
17.700000	1339.407554	0.546872
17.800000	1327.469250	0.670836
17.900000	2075.948191	0.588369
18.000000	1429.303964	0.305185
18.100000	2181.830043	0.316078
18.200000	1532.787404	0.536324
18.300000	952.611654	0.768579
18.400000	1321.123532	0.743774
18.500000	1870.042026	0.475427
18.600000	1984.974846	0.475373
18.700000	685.330870	0.843390
18.800000	1648.371214	-0.018264
18.900000	324.089531	1.089598
19.000000	947.029971	-0.061805
19.100000	2115.267176	0.509738
19.200000	1646.224024	0.777443
19.300000	1607.723937	0.752529
19.400000	1374.196650	0.297505
19.500000	1668.524248	-0.197707
19.600000	1071.653928	0.026046
19.700000	1231.343361	0.809329
19.800000	1927.147593	0.561101
19.900000	1406.747261	0.097137
20.000000	1694.544752	0.461967
20.100000	832.834898	0.984832
20.200000	1313.168847	-0.149571
20.300000	995.205068	0.578499
20.400000	2101.175895	0.621143
20.500000	2081.753877	0.707871
20.600000	1471.947688	0.578194
20.700000	2065.760799	0.820968
20.800000	571.035234	0.175034
20.900000	986.043668	0.517923
21.000000	1851.261848	0.176922
21.100000	1711.267163	0.393842
21.200000	1110.906047	0.606207
21.300000	1124.398933	0.546341
21.400000	2059.601139	1.026198
21.500000	1301.797570	0.084054
21.600000	1897.191606	0.580028
21.700000	1817.215557	0.210270
21.800000	1244.819530	0.386956
21.900000	1506.400606	-0.100221
22.000000	1985.232723	0.003504
22.100000	1321.828707	0.459443
22.200000	1659.565827	0.295363
22.300000	1518.500692	0.831087
22.400000	2028.209328	0.391856
22.500000	1979.599306	0.436804
22.600000	925.809229	0.099720
22.700000	1317.264238	0.837848
22.800000	803.505501	0.666228
22.900000	1898.423237	0.562896
23.000000	1167.144432	0.024327
23.100000	750.963801	-0.078477
23.200000	1655.987225	0.227778
23.300000	704.198296	0.542502
23.400000	2097.670932	0.799394
23.500000	808.858112	0.069787
23.600000	1302.646407	0.517727
23.700000	1460.888917	0.837533
23.800000	1865.658910	0.010160
23.900000	1008.898549	0.381596
24.000000	911.570717	-0.648508
24.100000	1391.964154	0.259626
24.200000	1347.830915	0.595298
24.300000	1152.259146	0.781938
24.400000	1283.330124	0.798358
24.500000	1099.103223	0.339692
24.600000	1069.938977	0.013498
24.700000	1619.154333	0.043680
24.800000	2164.768896	0.678327
24.900000	1268.554065	0.244320
25.000000	1339.224591	0.169069
25.100000	1328.190881	0.656107
25.200000	936.844594	-0.287128
25.300000	1411.501763	0.456066
25.400000	1819.474812	0.156354
25.500000	2167.928350	0.208281
25.600000	1309.400424	-0.300864
25.700000	1204.713522	0.948674
25.800000	943.484837	1.040067
25.900000	1524.667283	0.486671
26.000000	1604.536939	-0.001061
26.100000	1272.050651	-0.038520
26.200000	1102.961935	0.329057
26.300000	1167.419879	0.389768
26.400000	1780.515791	0.718536
26.500000	688.936859	-0.153800
26.600000	1257.606752	-0.077307
26.700000	1433.595022	-0.184532
26.800000	1335.814992	0.188019
26.900000	400.189325	-0.553552
27.000000	760.943680	0.207944
27.100000	1091.559177	0.437578
27.200000	1388.186888	0.313069
27.300000	1547.033053	0.420197
27.400000	1439.840721	-0.272623
27.500000	818.617128	0.374280
27.600000	937.449977	0.200735
27.700000	1627.450978	0.062179
27.800000	1287.196424	-0.047738
27.900000	1170.248879	0.545234
28.000000	1502.482702	0.496152
28.100000	985.252109	0.759001
28.200000	1853.136431	0.739726
28.300000	742.604286	0.749841
28.400000	1402.800691	0.181621
28.500000	1698.943701	0.135522
28.600000	808.695941	0.360959
28.700000	1405.918685	1.115394
28.800000	1118.887948	0.116918
28.900000	2124.071109	0.750728
29.000000	1470.952062	-0.321214
29.100000	925.091995	-0.172622
29.200000	1675.386246	0.421458
29.300000	1554.148096	0.297315
29.400000	1218.818128	0.626688
29.500000	1171.484285	0.068192
29.600000	701.048105	1.220189
29.700000	1308.689332	0.118853
29.800000	1878.804865	0.314070
29.900000	921.481138	-0.107078
30.000000	1892.701196	-0.179693
30.100000	1554.613516	0.944847
30.200000	1093.353706	0.537779
30.300000	1521.551973	0.772356
30.400000	1589.467380	0.404668
30.500000	805.579441	0.160557
30.600000	908.982859	0.464359
30.700000	1562.455397	0.008002
30.800000	1397.313932	0.407318
30.900000	994.877465	0.602336
31.000000	1128.791714	0.329901
31.100000	2063.262553	0.170017
31.200000	455.098426	0.302193
31.300000	458.237727	0.248904
31.400000	1627.856646	0.384592
31.500000	1356.092851	0.145898
31.600000	577.349586	0.493568
31.700000	831.752521	1.092486
31.800000	1917.068981	0.511127
31.900000	1290.193635	0.278343
32.000000	1702.675287	0.310718
32.100000	1109.424633	0.094642
32.200000	1400.666692	-0.215546
32.300000	1799.278195	0.413734
32.400000	1259.519560	0.510077
32.500000	979.357316	0.794250
32.600000	925.626667	0.688479
32.700000	1249.493498	0.364389
32.800000	1725.237037	-0.020162
32.900000	1556.469004	-0.059777
33.000000	1494.592365	0.493761
33.100000	1526.212268	0.050420
33.200000	1893.440054	0.101057
33.300000	1456.098663	0.566841
33.400000	1227.646507	-0.168111
33.500000	1361.610740	0.201887
33.600000	1297.237997	-0.001154
33.700000	1653.502726	0.242649
33.800000	334.106897	0.364354
33.900000	1346.209617	0.822761
34.000000	544.558861	0.590225
34.100000	1000.633931	-0.096001
34.200000	783.261189	0.262175
34.300000	1832.166673	-0.072014
34.400000	1777.650217	0.310332
34.500000	892.014152	-0.305599
34.600000	733.756333	0.217096
34.700000	494.227445	0.668893
34.800000	1476.714638	-0.006090
34.900000	1820.450913	-0.010645
35.000000	1454.658176	-0.383550
35.100000	547.981246	-1.022875
35.200000	1404.673569	0.376667
35.300000	1920.250527	-0.070684
35.400000	1684.863728	0.477512
35.500000	1467.193941	-0.072665
35.600000	931.507054	0.152509
35.700000	1190.475222	0.531469
35.800000	2087.822292	0.299018
35.900000	1361.771246	0.560764
36.000000	976.776243	0.079266
36.100000	1364.422065	0.172259
36.200000	1217.909632	0.633899
36.300000	890.505832	0.504027
36.400000	1438.741910	0.334532
36.500000	1488.782503	0.564655
36.600000	1857.510811	0.069826
36.700000	1873.831193	-0.433488
36.800000	932.801566	0.177539
36.900000	853.221589	0.855109
37.000000	1140.235152	-0.085221
37.100000	616.549284	0.390672
37.200000	680.435544	0.097678
37.300000	1610.797691	-0.025938
37.400000	1660.618372	-0.119665
37.500000	1408.451176	-0.056095
37.600000	1111.281011	0.587093
37.700000	1205.261751	0.559965
37.800000	1510.100135	-0.131635
37.900000	1764.689645	-0.424307
38.000000	1269.138571	0.403544
38.100000	828.358278	-0.343757
38.200000	1145.413081	0.177687
38.300000	1500.579906	0.552512
38.400000	1117.556863	0.358996
38.500000	915.204079	-0.383558
38.600000	1191.216618	0.285155
38.700000	1936.492181	0.412079
38.800000	1458.552029	0.347306
38.900000	1753.117906	0.158259
39.000000	1307.074933	0.574715
39.100000	1139.585216	-0.032807
39.200000	799.093865	0.435963
39.300000	1009.835078	0.362954
39.400000	1500.724912	-0.062458
39.500000	339.212507	0.497981
39.600000	1896.936969	0.723459
39.700000	1531.822828	0.318157
39.800000	706.417843	0.751673
39.900000	600.149520	-0.514124
40.000000	1318.516879	0.713460
40.100000	905.007871	0.193622
40.200000	1167.237130	0.685045
40.300000	1443.119260	-0.202766
40.400000	1674.033075	-0.358933
40.500000	1117.778447	-0.145470
40.600000	1304.340847	0.074855
40.700000	722.141713	0.813319
40.800000	1876.990409	-0.195879
40.900000	924.934183	0.032537
41.000000	1698.352579	0.164092
41.100000	1174.573400	-0.009194
41.200000	1363.052445	0.606294
41.300000	1539.612040	0.336841
41.400000	976.322991	-0.030366
41.500000	985.616605	0.035880
41.600000	309.563836	0.606677
41.700000	1370.248524	0.521914
41.800000	1574.434726	0.076567
41.900000	1145.090585	0.328946
42.000000	1631.274487	0.530967
42.100000	1297.714889	0.371920
42.200000	786.176788	0.359699
42.300000	857.221505	0.100392
42.400000	1160.667263	0.269824
42.500000	1872.625695	0.108420
42.600000	989.631794	0.511393
42.700000	1112.059982	0.187887
42.800000	974.170200	-0.075533
42.900000	924.168494	-0.055665
43.000000	1241.432305	0.479427
43.100000	1046.781442	0.042078
43.200000	2053.296061	0.258113
43.300000	1448.155272	-0.188716
43.400000	1303.325046	0.105211
43.500000	1858.368199	-0.027419
43.600000	830.441631	0.296940
43.700000	709.418179	-0.208876
43.800000	1184.172674	0.099920
43.900000	1097.045894	0.251985
44.000000	2167.943707	0.314854
44.100000	1323.533081	0.097844
44.200000	1012.838404	-0.360878
44.300000	1272.947083	0.381918
44.400000	1408.161667	0.362032
44.500000	684.964579	0.039956
44.600000	2056.707917	0.171159
44.700000	1639.583523	-0.135749
44.800000	1114.500255	0.339122
44.900000	1288.647266	-0.501454
45.000000	1541.997630	0.519425
45.100000	1393.877129	0.147770
45.200000	1594.006922	-0.040802
45.300000	556.526690	-0.211073
45.400000	1072.037548	-0.288922
45.500000	1257.214615	0.611385
45.600000	1687.122335	0.401494
45.700000	1629.243084	0.762537
45.800000	1399.236494	-0.049656
45.900000	1196.700400	0.650892
46.000000	1074.151039	-0.041236
46.100000	1776.496640	0.106730
46.200000	1511.853334	0.430870
46.300000	1630.954286	0.170985
46.400000	1557.065877	-0.087535
46.500000	1293.906226	0.298305
46.600000	1070.695605	0.801890
46.700000	602.066788	-0.104163
46.800000	1153.111006	0.503282
46.900000	1742.997920	0.284310
47.000000	1897.342146	0.116573
47.100000	1075.307545	-0.027998
47.200000	835.041993	0.100587
47.300000	1275.317168	0.533958
47.400000	188.456481	-0.101397
47.500000	1587.606392	0.033582
47.600000	2094.817070	0.156194
47.700000	1439.792768	0.177770
47.800000	684.084262	0.542419
47.900000	569.207115	-0.134959
48.000000	1247.845026	0.288247
48.100000	1010.450699	-0.476918
48.200000	1092.554875	0.235274
48.300000	880.253364	-0.487496
48.400000	972.942936	0.359677
48.500000	1592.129085	0.289919
48.600000	1887.030995	0.171609
48.700000	1250.455987	-0.067436
48.800000	1427.747542	0.431855
48.900000	852.427709	1.298872
49.000000	1736.213610	-0.253045
49.100000	1445.447333	-0.094919
49.200000	934.925434	0.112715
49.300000	1171.487620	-0.043488
49.400000	1581.520798	-0.021132
49.500000	1218.459888	0.372224
49.600000	895.136135	0.129557
49.700000	900.522946	-0.041876
49.800000	1051.909184	0.129857
49.900000	815.198704	0.129445
50.000000	1683.552733	0.519911
50.100000	876.887099	0.125596
50.200000	680.992298	-0.275889
50.300000	624.348586	0.484118
50.400000	862.147495	0.124944
50.500000	1524.119461	0.244725
50.600000	2310.141555	-0.253529
50.700000	2045.806136	0.295311
50.800000	1354.130885	-0.912470
50.900000	1228.492316	0.501892
51.000000	1065.114436	0.605914
51.100000	1760.500874	-0.058930
51.200000	1147.940911	0.427638
51.300000	1215.111612	0.130297
51.400000	1412.603253	-0.008444
51.500000	1621.917414	-0.257680
51.600000	1744.449648	0.540753
51.700000	1331.930295	-0.081990
51.800000	1758.940494	0.198210
51.900000	1748.246183	0.569168
52.000000	1492.950355	-0.639456
52.100000	1758.885489	0.351453
52.200000	684.414350	-0.060945
52.300000	1694.812795	0.638506
52.400000	2171.129946	0.389808
52.500000	1019.670879	-0.289579
52.600000	1127.682551	0.085839
52.700000	780.010100	-0.302307
52.800000	1524.089439	0.694614
52.900000	2019.431859	0.383200
53.000000	1825.772672	0.461363
53.100000	873.008933	-0.660268
53.200000	1091.065032	0.140345
53.300000	1078.774996	0.899976
53.400000	937.879522	1.041412
53.500000	1659.851059	0.295202
53.600000	2061.656656	-0.369495
53.700000	1113.087652	-0.065078
53.800000	1377.371457	-0.157161
53.900000	1017.236487	0.970653
54.000000	1170.817076	0.312653
54.100000	1511.023628	0.115571
54.200000	792.719284	0.563525
54.300000	1451.319261	0.148893
54.400000	1834.562374	0.167216
54.500000	1436.005345	0.322927
54.600000	1220.924609	-0.751039
54.700000	814.182144	0.028129
54.800000	1671.842304	0.708014
54.900000	1637.227042	-0.033073
55.000000	2267.257129	-0.091582
55.100000	969.555427	0.224190
55.200000	1176.377131	-0.111788
55.300000	992.459829	0.938462
55.400000	816.370331	0.176513
55.500000	1592.338359	0.418065
55.600000	602.515195	-1.124398
55.700000	1256.586046	-0.054829
55.800000	997.175910	0.940487
55.900000	1603.962146	0.210044
56.000000	1160.816327	0.433068
56.100000	1815.592289	-0.652503
56.200000	1296.876703	-0.163783
56.300000	1414.318790	0.424987
56.400000	750.353167	-0.029285
56.500000	1070.975935	-0.355238
56.600000	1340.075162	-0.027526
56.700000	601.999059	0.076026
56.800000	1320.135447	0.290439
56.900000	1547.886831	0.470928
57.000000	780.110722	0.286446
57.100000	1008.477153	-0.377823
57.200000	1173.446750	0.142716
57.300000	1947.026038	-0.323048
57.400000	1627.898410	0.084156
57.500000	924.666575	-0.569322
57.600000	1153.354527	0.049929
57.700000	923.785300	0.575707
57.800000	1127.444993	0.520193
57.900000	2465.223578	-0.156065
58.000000	2367.913054	-0.491129
58.100000	904.066580	0.259895
58.200000	1756.447839	0.106176
58.300000	1660.749605	0.526650
58.400000	2125.302065	-0.142801
58.500000	967.789942	-0.512072
58.600000	1043.182887	-0.495346
58.700000	1675.644789	0.181084
58.800000	1339.998296	0.379176
58.900000	1758.493763	0.420572
59.000000	1432.949458	-0.462488
59.100000	1474.427479	-0.141022
59.200000	603.676273	0.659785
59.300000	2058.053274	0.143370
59.400000	1075.683452	0.257359
59.500000	1577.115490	0.513672
59.600000	1640.245828	0.278130
59.700000	631.000609	0.170938
59.800000	1860.409221	0.794945
59.900000	1095.112458	0.663141
60.000000	1850.890422	-0.068090
60.100000	565.596874	-0.291293
60.200000	791.420081	0.746666
60.300000	2009.884417	0.518679
60.400000	1025.067580	-0.153963
60.500000	1903.105815	0.235254
60.600000	1049.256707	0.016617
60.700000	710.275541	-0.278198
60.800000	1680.054020	0.502622
60.900000	1333.612303	-0.000611
61.000000	578.267330	-0.060609
61.100000	500.243383	0.443590
61.200000	1111.517864	0.234300
61.300000	1278.792448	0.372365
61.400000	1606.646284	0.363878
61.500000	1189.956424	0.270315
61.600000	1263.794728	0.271801
61.700000	2012.069135	-0.094278
61.800000	1872.836156	-0.061157
61.900000	1626.331656	-0.089467
62.000000	1980.946324	0.907222
62.100000	1551.059108	-0.076020
62.200000	272.188048	0.962024
62.300000	1694.275442	-0.312538
62.400000	692.288067	0.524089
62.500000	799.064481	0.926592
62.600000	2173.303682	0.040345
62.700000	1247.640976	0.658697
62.800000	1122.599351	0.527616
62.900000	1028.212281	-0.601332
63.000000	1424.943970	-0.173927
63.100000	460.192840	-0.436168
63.200000	1183.137193	-0.388270
63.300000	876.280342	0.398324
63.400000	1259.155192	-0.123335
63.500000	985.065134	-0.300960
63.600000	953.488415	-0.584394
63.700000	2007.040154	0.029171
63.800000	2349.624688	-0.437456
63.900000	2178.915764	0.168418
64.000000	1052.884952	-0.955095
64.100000	1250.093463	0.442864
64.200000	2010.152084	0.206986
64.300000	1373.293283	-0.798714
64.400000	2314.279268	0.066185
64.500000	1620.465350	-0.217044
64.600000	1251.031812	0.572165
64.700000	2208.334478	-0.631342
64.800000	1722.033546	0.404401
64.900000	1598.373878	0.054362
65.000000	2017.432930	0.189074
65.100000	1448.247660	0.014214
65.200000	1111.324022	0.111986
65.300000	1651.435985	0.199392
65.400000	1093.555409	0.683527
65.500000	1434.398050	-0.193615
65.600000	2982.842104	-0.029547
65.700000	176.653072	1.330082
65.800000	1676.797689	0.430054
65.900000	1540.081759	0.415055
66.000000	1736.640619	-0.221829
66.100000	1154.116873	-0.098403
66.200000	1441.335322	0.054789
66.300000	1043.177237	0.014157
66.400000	1555.329367	0.152650
66.500000	762.584481	0.371781
66.600000	901.892832	-0.294383
66.700000	1233.827012	-0.238130
66.800000	696.790275	0.066685
66.900000	1771.347631	-0.243833
67.000000	1028.924637	0.261603
67.100000	2104.681235	0.304602
67.200000	1962.482369	0.762564
67.300000	1115.164692	-0.404605
67.400000	1435.214682	0.086699
67.500000	1509.294813	0.315366
67.600000	2537.186681	-0.220215
67.700000	1175.198571	-0.524001
67.800000	1696.836797	0.628543
67.900000	765.565511	1.240788
68.000000	1821.039649	0.676255
68.100000	1378.841570	-0.045715
68.200000	737.922241	-0.434934
68.300000	1358.345651	0.644579
68.400000	973.177963	0.199032
68.500000	766.554526	1.552625
68.600000	1260.005107	0.130867
68.700000	861.501130	1.120879
68.800000	382.148966	-0.753488
68.900000	1521.896690	-0.197883
69.000000	383.410336	-1.190772
69.100000	696.799887	0.913007
69.200000	889.010090	0.301513
69.300000	1347.934336	0.154971
69.400000	1006.630773	-0.283957
69.500000	1429.314237	-0.280433
69.600000	1167.182108	1.141846
69.700000	1430.187476	-0.444580
69.800000	662.604044	0.612680
69.900000	1469.172131	-0.245581
70.000000	1623.802148	-0.154935
70.100000	1150.637020	-0.025420
70.200000	720.399609	0.741538
70.300000	858.284946	-0.512485
70.400000	1614.194209	0.597007
70.500000	1194.091638	-0.647819
70.600000	1472.075658	-0.189194
70.700000	309.731349	0.307935
70.800000	1933.646373	0.072408
70.900000	1712.506879	0.926559
71.000000	1902.840958	-0.123273
71.100000	1295.697300	-0.312652
71.200000	1250.016887	-0.493548
71.300000	706.151189	1.115700
71.400000	1866.231008	0.030059
71.500000	2106.583623	0.184535
71.600000	1503.797228	0.171436
71.700000	1420.799066	0.058112
71.800000	569.290601	0.070243
71.900000	2841.776837	-0.268972
72.000000	1559.121000	-0.094283
72.100000	1149.564167	0.367014
72.200000	1949.670976	0.199258
72.300000	1429.429969	-0.016617
72.400000	1472.040401	0.061785
72.500000	1655.805587	0.241702
72.600000	1400.472643	0.079140
72.700000	1495.966296	0.663644
72.800000	1858.467972	0.615491
72.900000	1856.001047	-0.223156
73.000000	1876.648142	0.531215
73.100000	1618.050463	0.074767
73.200000	1154.296751	0.390358
73.300000	696.734610	-0.231366
73.400000	2251.676546	0.357568
73.500000	1415.879580	0.292453
73.600000	1449.190563	-0.214694
73.700000	1921.604493	0.308989
73.800000	2261.599842	0.589339
73.900000	1801.227057	0.403407
74.000000	1031.961951	0.372633
74.100000	2038.667281	0.373472
74.200000	796.235234	-0.212019
74.300000	1300.461320	0.241770
74.400000	1068.426767	0.045596
74.500000	1528.322815	0.379077
74.600000	2500.826725	0.458141
74.700000	1579.006822	-0.240504
74.800000	1000.353168	0.356767
74.900000	1932.613557	-0.406993
75.000000	516.913723	-0.536910
75.100000	2392.874968	0.505398
75.200000	1720.694191	0.550422
75.300000	1918.300600	0.201159
75.400000	1908.337129	0.487532
75.500000	1060.261800	-0.396047
75.600000	1925.107506	-0.025460
75.700000	996.933939	1.516401
75.800000	2283.458995	0.032129
75.900000	1855.049654	0.058511
76.000000	968.573302	-0.131288
76.100000	770.985139	1.142347
76.200000	1031.289925	0.376455
76.300000	672.731585	0.488221
76.400000	1055.321554	-0.018885
76.500000	1660.061881	-0.460544
76.600000	714.829583	-0.649910
76.700000	1710.617571	-0.005655
76.800000	510.984069	-1.082255
76.900000	434.239002	0.725289
77.000000	2418.949807	-0.756463
77.100000	1195.349729	-0.419180
77.200000	1184.003223	-0.676933
77.300000	1547.478816	-0.312018
77.400000	519.928938	-0.767348
77.500000	1899.077628	0.089301
77.600000	1806.445790	-0.333898
77.700000	2681.437092	-0.424761
77.800000	1452.487756	0.636186
77.900000	2430.950824	-0.644420
78.000000	1328.242335	0.381490
78.100000	1058.542690	-0.275047
78.200000	2189.847049	0.331924
78.300000	1103.942119	-0.309233
78.400000	1833.499955	-0.236514
78.500000	1830.347451	0.165409
78.600000	1301.378107	-0.253004
78.700000	1063.086766	-0.257705
78.800000	2310.833767	0.007641
78.900000	1690.341543	0.087551
79.000000	1722.665419	-0.224325
79.100000	1458.225951	0.186474
79.200000	766.718741	0.049315
79.300000	1251.650300	0.493929
79.400000	541.302081	0.166267
79.500000	1923.324520	0.017516
79.600000	1547.294442	0.054074
79.700000	1416.009984	-0.407405
79.800000	743.989991	-1.467761
79.900000	968.045155	0.708131
80.000000	1364.127387	0.565803
80.100000	3082.831331	-0.154640
80.200000	1960.624747	-0.323447
80.300000	1651.648912	-0.877619
80.400000	1549.838866	0.489942
80.500000	362.181803	0.636428
80.600000	1921.762284	-0.148810
80.700000	1198.049383	0.817270
80.800000	983.106910	0.445264
80.900000	2508.147073	-0.389395
81.000000	1243.376224	0.214893
81.100000	1177.742698	0.553548
81.200000	1515.259897	0.383596
81.300000	2229.051041	0.693393
81.400000	2184.283244	0.127762
81.500000	919.249495	-0.315635
81.600000	574.892356	0.795877
81.700000	1323.475909	1.239787
81.800000	2043.198022	0.395341
81.900000	1777.925684	0.796803
82.000000	137.459235	0.064601
82.100000	904.644465	0.781739
82.200000	486.560459	1.290160
82.300000	707.033594	0.683796
82.400000	1103.516573	0.572631
82.500000	2171.408525	0.080988
82.600000	407.663911	-1.159038
82.700000	1438.253762	-0.642003
82.800000	552.093155	1.203118
82.900000	1117.066380	1.305787
83.000000	1571.428429	0.112172
83.100000	2012.053421	-0.245664
83.200000	2085.098876	-0.338477
83.300000	1133.622655	-0.581880
83.400000	1323.751789	0.756206
83.500000	2083.469076	-0.345248
83.600000	1343.587800	-0.721390
83.700000	326.224196	0.694377
83.800000	1329.042643	0.112467
83.900000	1593.112338	0.174257
84.000000	2930.884151	-0.402567
84.100000	1101.666593	0.071828
84.200000	623.397617	0.043903
84.300000	1277.042432	0.592227
84.400000	1199.821379	0.039739
84.500000	1081.160810	0.430176
84.600000	2198.288854	-0.326227
84.700000	1242.311594	0.568304
84.800000	1076.919979	-0.597121
84.900000	1383.815825	-0.172325
85.000000	780.187148	2.425740
85.100000	1284.500688	-0.184246
85.200000	1615.381202	-0.013413
85.300000	1320.641294	-0.315044
85.400000	1532.072494	0.695527
85.500000	2915.827399	0.393202
85.600000	1099.308844	-0.436188
85.700000	2710.282209	-0.068859
85.800000	1597.279070	0.238790
85.900000	499.376570	0.863486
86.000000	1355.501068	0.091568
86.100000	758.618814	0.070204
86.200000	2207.513185	-0.114722
86.300000	1750.353374	-0.337675
86.400000	1619.305154	0.023797
86.500000	1155.401250	-0.618152
86.600000	2363.922501	0.278703
86.700000	2226.975902	0.456630
86.800000	1906.128290	0.245842
86.900000	3857.284448	0.077731
87.000000	2076.367477	0.174257
87.100000	1532.424837	0.782180
87.200000	1473.719201	-0.202778
87.300000	2104.268223	0.803779
87.400000	1357.395459	-0.164868
87.500000	1655.929111	-0.151863
87.600000	1940.613819	0.355448
87.700000	1876.131517	-0.237848
87.800000	1117.994619	0.808586
87.900000	2062.210373	0.176972
88.000000	916.940158	0.163484
88.100000	1044.836985	-0.635153
88.200000	881.966130	0.150603
88.300000	40.509038	1.527885
88.400000	1872.841041	1.165015
88.500000	1976.678366	0.052875
88.600000	645.990010	1.567852
88.700000	764.034015	0.204904
88.800000	1450.403966	-0.333184
88.900000	1430.484249	1.643792
89.000000	1271.058274	-0.399237
89.100000	975.982686	-0.284024
89.200000	2054.978928	0.581019
89.300000	1555.199694	0.171005
89.400000	1579.755163	-0.464929
89.500000	1229.188401	1.660908
89.600000	1086.212832	0.215319
89.700000	1833.550102	0.902962
89.800000	374.453400	-2.152597
89.900000	1931.670235	0.149669
90.000000	1469.632493	0.862199
90.100000	1728.757126	0.289003
90.200000	522.044515	-2.242630
90.300000	993.494079	0.652921
90.400000	315.157546	1.187602
90.500000	2170.439705	0.146991
90.600000	1715.539650	-0.730942
90.700000	1235.193802	-0.730203
90.800000	866.702618	0.231643
90.900000	1330.206717	1.122353
91.000000	2401.992126	0.655306
91.100000	1295.399908	-0.262701
91.200000	687.157219	-0.625362
91.300000	1685.994516	-0.957988
91.400000	1925.281405	0.454642
91.500000	2114.675496	-0.765558
91.600000	1180.672954	-0.169597
91.700000	1740.863252	-0.391027
91.800000	2401.645018	-0.536710
91.900000	1186.594281	-0.902079
92.000000	1848.477807	-0.407851
92.100000	1640.306720	0.819819
92.200000	1934.786914	0.136637
92.300000	1510.145917	0.842255
92.400000	1631.191913	-0.101341
92.500000	509.373332	0.095457
92.600000	1991.267638	0.497912
92.700000	1223.736344	0.379003
92.800000	1692.978612	0.108145
92.900000	1780.916050	-0.042075
93.000000	820.292371	-1.238544
93.100000	2589.793637	0.390910
93.200000	1082.105798	-0.894886
93.300000	2008.784998	0.665962
93.400000	2950.881893	0.723292
93.500000	2246.334477	-0.391372
93.600000	1466.357653	0.718926
93.700000	467.251354	0.195231
93.800000	844.006532	-0.183034
93.900000	2233.833368	0.693248
94.000000	2179.028139	0.310060
94.100000	1300.062823	-1.194294
94.200000	2634.851672	-0.137318
94.300000	1166.498094	0.027893
94.400000	2445.678585	-0.083906
94.500000	3335.395358	0.296464
94.600000	900.007504	0.233284
94.700000	3165.912542	0.545146
94.800000	1970.898449	0.053741
94.900000	874.403098	0.318603
95.000000	2447.733671	0.321659
95.100000	1662.517410	0.241310
95.200000	1258.535676	0.471497
95.300000	1645.303055	0.801874
95.400000	562.836689	2.942364
95.500000	2125.171825	0.645759
95.600000	1377.767107	-0.580424
95.700000	987.280780	0.347819
95.800000	1517.664169	1.178865
95.900000	1599.637129	0.165535
96.000000	1354.239787	0.555206
96.100000	1171.840263	0.151937
96.200000	613.195723	2.043064
96.300000	594.375779	-0.643155
96.400000	2048.606398	0.483408
96.500000	747.725404	-1.323722
96.600000	673.159333	-0.764517
96.700000	1067.951527	-0.962113
96.800000	550.846461	0.210494
96.900000	981.662602	-0.665947
97.000000	1675.750638	0.012626
97.100000	1376.132090	-0.088364
97.200000	2996.234898	-0.273266
97.300000	2072.780837	-0.062697
97.400000	1142.270776	-0.973484
97.500000	1259.632052	1.142626
97.600000	2433.996300	0.103688
97.700000	1029.205504	0.347116
97.800000	2088.257320	-0.667679
97.900000	1006.250525	0.779763
98.000000	578.172026	2.946397
98.100000	3385.430525	0.000970
98.200000	870.991038	-0.060947
98.300000	2246.014477	-0.468386
98.400000	1524.230131	0.403981
98.500000	1493.187654	-0.304097
98.600000	1437.762998	0.238414
98.700000	1389.917279	-0.189858
98.800000	197.809140	-2.898583
98.900000	2340.420699	-0.038708
99.000000	2385.627411	-0.156054
99.100000	523.621601	-2.075903
99.200000	953.247477	-1.518308
99.300000	236.068716	1.600807
99.400000	1771.042653	-0.391447
99.500000	2792.443778	-0.742911
99.600000	1180.251066	0.241822
99.700000	2204.106115	-0.148713
99.800000	1645.855972	-0.330941
99.900000	2142.771427	-0.090746
100.000000	2549.532765	-0.179509
100.100000	772.347777	0.084587
100.200000	2374.081903	-0.055064
100.300000	2144.201260	0.193153
100.400000	1911.226119	0.341458
100.500000	2677.616069	0.292487
100.600000	1462.002513	0.077256
100.700000	2055.013460	-0.199515
100.800000	1566.841460	0.149322
100.900000	1996.322905	0.872977
101.000000	2028.160581	0.611376
101.100000	2618.359040	-0.045821
101.200000	1511.692670	1.264801
101.300000	900.088096	1.404850
101.400000	1502.261777	0.643471
101.500000	2053.571668	0.349573
101.600000	970.533724	0.831666
101.700000	1063.529177	-0.512868
101.800000	1710.503945	1.186116
101.900000	576.259801	2.575952
102.000000	3520.112057	0.125257
102.100000	944.364455	-0.110654
102.200000	1141.353144	-1.572258
102.300000	928.264209	0.642817
102.400000	712.505247	0.065781
102.500000	2355.993685	1.106692
102.600000	2234.437089	-0.141137
102.700000	1053.546567	0.993535
102.800000	1069.379425	-0.634229
102.900000	2222.026587	0.090911
103.000000	743.731096	2.268681
103.100000	1989.180796	-0.972815
103.200000	460.250728	1.349061
103.300000	1921.589085	0.031794
103.400000	1984.258441	0.723723
103.500000	1573.826778	0.428523
103.600000	640.980681	1.149544
103.700000	1494.101505	0.466672
103.800000	1986.903869	0.552604
103.900000	1108.156287	-0.102635
104.000000	1987.324191	0.472038
104.100000	1320.757085	0.486401
104.200000	1966.732336	1.053693
104.300000	829.467850	1.076914
104.400000	1247.916637	-0.402799
104.500000	2831.079775	-1.341687
104.600000	572.659307	-0.137650
104.700000	1046.638993	0.228454
104.800000	1438.492755	0.612507
104.900000	1608.802285	-0.147643
105.000000	1723.451213	-0.220709
105.100000	1126.751088	-0.158377
105.200000	2056.794619	-0.454666
105.300000	845.485038	0.188994
105.400000	1691.849455	0.061581
105.500000	1212.143229	-0.232002
105.600000	1330.532147	-0.378364
105.700000	1297.493461	-0.527333
105.800000	1890.264783	-0.723012
105.900000	2880.641460	0.053160
106.000000	1974.695645	-0.360067
106.100000	2795.071891	-0.503937
106.200000	1912.043949	0.284434
106.300000	1856.378145	0.600464
106.400000	2114.059837	0.619259
106.500000	3350.520046	-0.029835
106.600000	1579.769771	0.303315
106.700000	355.902058	-0.427310
106.800000	2432.756273	0.436400
106.900000	1081.960020	2.535836
107.000000	1374.975216	-0.463600
107.100000	1041.182683	-0.188767
107.200000	2552.981931	0.369934
107.300000	2119.721912	-0.230891
107.400000	2120.628305	-0.318487
107.500000	1326.563439	0.176973
107.600000	2363.585983	-0.660892
107.700000	1593.788690	0.872609
107.800000	1168.956538	0.197010
107.900000	2050.817476	0.354383
108.000000	2028.311286	0.574380
108.100000	2052.191469	-0.265660
108.200000	1302.228838	0.259098
108.300000	1626.608773	-0.644659
108.400000	1420.714383	0.363434
108.500000	2425.161228	0.183581
108.600000	1842.926004	0.581486
108.700000	2367.298630	-0.433926
108.800000	1328.463398	0.326407
108.900000	1072.158659	0.231506
109.000000	1895.993589	0.120363
109.100000	2190.613415	0.731162
109.200000	569.257488	-0.227469
109.300000	1817.885876	0.869916
109.400000	1298.964810	2.095847
109.500000	780.157478	2.895226
109.600000	1913.142730	-0.113185
109.700000	672.480027	-1.660105
109.800000	1258.032887	0.489021
109.900000	849.901155	-0.633107
110.000000	79.066965	0.582053
110.100000	838.951004	-0.649966
110.200000	1329.348300	-0.265263
110.300000	1356.652489	1.347802
110.400000	1397.321283	-0.904213
110.500000	1413.204132	0.251503
110.600000	280.997074	1.778468
110.700000	1848.176764	1.447338
110.800000	811.885892	-0.309611
110.900000	1183.061479	0.458402
111.000000	1497.272497	-0.357799
111.100000	956.902801	-0.354496
111.200000	672.902172	0.175247
111.300000	1943.640911	-0.265352
111.400000	2393.507547	0.261622
111.500000	1749.384775	-0.649369
111.600000	1685.798362	1.008243
111.700000	1794.121053	0.743063
111.800000	1525.469132	0.490932
111.900000	2369.102722	0.988734
112.000000	465.721665	-0.071672
112.100000	1140.754722	0.340828
112.200000	1678.796247	0.178009
112.300000	788.890861	0.146617
112.400000	479.882367	-0.367161
112.500000	1631.718639	1.251479
112.600000	1930.153868	-0.560016
112.700000	2216.451367	-0.183753
112.800000	1873.481196	-0.558187
112.900000	1640.418622	0.310818
113.000000	1634.311840	0.473342
113.100000	2568.706997	-0.836613
113.200000	1102.911556	0.497873
113.300000	799.880765	1.218803
113.400000	1095.631682	-0.361033
113.500000	2369.454583	-0.129401
113.600000	1478.218084	-0.475433
113.700000	1503.649873	0.506448
113.800000	2025.050285	0.266081
113.900000	2084.766914	0.663749
114.000000	3159.730463	-0.049857
114.100000	1902.924519	-0.110275
114.200000	1522.319872	0.760852
114.300000	2970.795706	0.272970
114.400000	3383.948065	0.585979
114.500000	1696.855992	1.999061
114.600000	3209.598254	0.551016
114.700000	1524.329498	0.302808
114.800000	950.236830	0.800749
114.900000	1597.381748	0.023632
115.000000	2307.522362	1.123120
115.100000	2666.435072	1.072080
115.200000	3198.908203	-0.351096
115.300000	2474.031053	0.557878
115.400000	672.846578	-0.710792
115.500000	1898.743581	1.020822
115.600000	1618.508474	0.962642
115.700000	1454.241983	-0.408321
115.800000	1826.483338	0.010589
115.900000	769.186213	1.067545
116.000000	917.542344	0.253019
116.100000	3013.472237	-0.285170
116.200000	664.632460	1.021634
116.300000	1831.872565	-0.048031
116.400000	1884.452429	-0.156622
116.500000	2935.659221	-0.325646
116.600000	1595.389789	0.009510
116.700000	1793.163739	0.669080
116.800000	1884.865359	0.088032
116.900000	2110.133272	0.290967
117.000000	2214.444231	-0.462609
117.100000	501.703036	-0.510638
117.200000	2039.812651	-0.251321
117.300000	1660.443022	0.519550
117.400000	1283.044140	-0.557281
117.500000	889.337731	0.994524
117.600000	811.827212	0.482444
117.700000	2409.794663	-0.418945
117.800000	216.429477	1.916807
117.900000	1441.470971	-0.238999
118.000000	1877.539879	1.303595
118.100000	1490.828542	0.264791
118.200000	1710.668927	-0.261690
118.300000	390.158356	0.155730
118.400000	970.112028	2.254333
118.500000	1740.551206	0.153460
118.600000	1702.910763	-1.252350
118.700000	1513.796055	-0.397492
118.800000	2733.339956	-0.704970
118.900000	457.329875	1.090522
119.000000	2138.442703	-0.154772
119.100000	3546.588956	-0.844017
119.200000	1310.459409	0.878692
119.300000	1818.038871	-0.482617
119.400000	3114.448295	-0.550590
119.500000	2865.947688	0.698948
119.600000	2036.990470	-0.428299
119.700000	1362.923918	0.088284
119.800000	852.603654	0.985408
119.900000	757.248257	-0.540812
120.000000	2816.605439	-0.113370
120.100000	2163.215070	0.308277
120.200000	2789.101635	-1.002290
120.300000	2779.805775	-0.374190
120.400000	1416.849064	-0.446212
120.500000	987.303149	0.821913
120.600000	2863.444762	0.388268
120.700000	1736.719663	-0.203320
120.800000	1068.232960	-1.067391
120.900000	1597.571311	1.033629
121.000000	578.284656	2.338833
121.100000	2228.197125	0.045306
121.200000	1248.454482	-0.654167
121.300000	1126.460676	-1.596576
121.400000	879.472941	1.691057
121.500000	1680.969351	-0.772986
121.600000	1881.236206	-0.263413
121.700000	1500.303115	-0.336893
121.800000	1529.418361	0.403157
121.900000	1158.520835	1.072216
122.000000	1791.172813	0.583293
122.100000	1571.575466	0.768534
122.200000	750.114513	1.589554
122.300000	3608.448511	0.990965
122.400000	1713.828993	-0.393809
122.500000	1298.114123	0.158380
122.600000	627.113932	1.576338
122.700000	321.398659	-0.806821
122.800000	1022.207001	1.223282
122.900000	2413.132422	-0.009873
123.000000	740.986460	0.520799
123.100000	1920.623944	0.720835
123.200000	1373.266686	0.250831
123.300000	1044.501721	-0.602983
123.400000	2695.722176	1.059824
123.500000	1272.755242	1.523133
123.600000	2704.647381	1.471106
123.700000	1428.529873	-0.135452
123.800000	1492.650676	-0.877185
123.900000	778.618046	2.327179
124.000000	1363.050726	0.725665
124.100000	997.385606	-1.062616
124.200000	1280.976788	0.051685
124.300000	752.716535	-2.946872
124.400000	456.880095	1.190420
124.500000	3521.785200	0.431192
124.600000	1004.002725	-0.422498
124.700000	1756.563443	-1.066764
124.800000	1377.096735	0.518092
124.900000	1764.736730	2.724692
125.000000	981.011192	0.055322
125.100000	1281.333629	-0.586404
125.200000	1779.128592	-2.901568
125.300000	1994.948715	0.938544
125.400000	1515.537402	0.413875
125.500000	2027.499823	0.078133
125.600000	1447.737510	-0.187231
125.700000	199.606966	3.014938
125.800000	354.586820	2.140886
125.900000	2543.177662	0.548341
126.000000	1520.889165	0.500041
126.100000	2010.182911	0.115851
126.200000	1345.550743	0.679057
126.300000	1861.269896	-1.348979
126.400000	1500.322590	0.590306
126.500000	829.960686	1.940807
126.600000	1585.880258	1.290650
126.700000	2660.691002	-0.100214
126.800000	2250.133564	-0.266046
126.900000	2352.700376	-0.434437
127.000000	2804.157362	0.009142
127.100000	1521.238383	0.626638
127.200000	2237.876723	-0.317288
127.300000	1689.333196	0.777958
127.400000	1401.777868	0.822248
127.500000	2237.879256	0.469935
127.600000	3547.353916	-0.077495
127.700000	2072.161451	-0.270488
127.800000	588.357599	1.283379
127.900000	2511.214258	-0.171575
128.000000	1621.982893	0.939008
128.100000	3205.693482	-0.264888
128.200000	837.236298	0.626912
128.300000	1119.367588	1.572060
128.400000	2688.932378	0.461967
128.500000	2861.063284	-0.209470
128.600000	676.937474	0.450918
128.700000	1475.687402	2.267176
128.800000	836.252353	2.033802
128.900000	1375.335363	0.721582
129.000000	2507.685687	-0.196389
129.100000	1298.176127	1.051452
129.200000	1540.094881	0.542855
129.300000	1199.750116	-0.363118
129.400000	1828.837299	-0.080636
129.500000	109.117482	1.148171
129.600000	1308.464940	0.895957
129.700000	1924.733635	0.296792
129.800000	3427.372262	0.606518
129.900000	276.075503	-0.216977
130.000000	1171.931572	0.155389
130.100000	1678.817904	0.244652
130.200000	1155.814037	-0.585996
130.300000	1109.685064	0.300120
130.400000	1368.149571	0.423203
130.500000	2046.471819	0.372951
130.600000	2937.885439	-0.668141
130.700000	1474.984275	0.604867
130.800000	650.312015	0.709357
130.900000	2083.917773	0.667676
131.000000	1958.528417	0.828219
131.100000	3442.511584	-0.641703
131.200000	1776.464577	1.874919
131.300000	1568.602381	1.289354
131.400000	2020.559765	-0.199783
131.500000	1814.767737	-0.269571
131.600000	1587.619080	0.457972
131.700000	1670.395575	-2.180731
131.800000	419.969984	0.521247
131.900000	1263.338976	-2.339209
132.000000	1976.249012	-0.250824
132.100000	1946.350656	1.802891
132.200000	1266.182467	-0.755652
132.300000	2533.495035	-0.128327
132.400000	1000.013280	-0.439908
132.500000	868.755717	-2.943148
132.600000	1424.039235	-0.386393
132.700000	2308.038825	-0.016333
132.800000	929.276296	-0.015314
132.900000	2391.045156	-0.798778
133.000000	1305.722364	0.979796
133.100000	1001.150168	0.910329
133.200000	2995.710614	-0.349413
133.300000	1932.842615	-0.751836
133.400000	2571.290176	0.404040
133.500000	2854.571936	-0.074713
133.600000	2320.916006	0.288198
133.700000	2182.531022	0.423401
133.800000	2329.705296	0.431484
133.900000	1484.233225	1.437187
134.000000	1416.940725	-0.394435
134.100000	759.385110	-0.649301
134.200000	1229.545956	0.768967
134.300000	1831.985717	1.498452
134.400000	2669.644120	-0.420705
134.500000	1937.075923	-0.411394
134.600000	2313.016448	0.538930
134.700000	1029.285635	-1.363075
134.800000	2173.421388	0.386641
134.900000	3022.810382	0.439800
135.000000	1105.416159	-0.788792
135.100000	1912.698428	1.495253
135.200000	1971.825281	0.379321
135.300000	793.593677	-0.520933
135.400000	1632.798761	-0.372932
135.500000	1805.735377	0.706759
135.600000	2200.992707	-1.755822
135.700000	1838.078662	0.401877
135.800000	422.131666	-1.130735
135.900000	2224.732233	-0.156047
136.000000	2705.298865	0.787730
136.100000	1956.672990	-0.920740
136.200000	1347.755458	0.152906
136.300000	1082.133444	0.805416
136.400000	2272.375028	1.184182
136.500000	1357.467355	0.390828
136.600000	2885.173583	0.205201
136.700000	1450.973463	0.176236
136.800000	1441.131145	0.574788
136.900000	1087.448897	2.087813
137.000000	2289.503069	-0.844080
137.100000	2717.655705	0.046668
137.200000	979.234030	-0.179635
137.300000	1860.262340	0.296505
137.400000	2232.477641	-0.869936
137.500000	1403.591826	1.733263
137.600000	2480.070160	0.221273
137.700000	1732.914432	-0.500237
137.800000	908.701463	0.867574
137.900000	1317.676688	-0.932361
138.000000	1531.890022	0.568960
138.100000	1451.896260	1.587331
138.200000	758.822250	-0.553386
138.300000	1651.713016	-0.327169
138.400000	1277.838607	-1.235144
138.500000	1328.162828	-0.426062
138.600000	2275.480672	-0.191609
138.700000	574.765925	-1.088696
138.800000	1897.915719	-0.192557
138.900000	878.303470	0.762300
139.000000	2443.653019	-0.646745
139.100000	1155.245200	-1.048746
139.200000	1122.170299	-0.633259
139.300000	1250.900019	0.819850
139.400000	1148.627333	1.322771
139.500000	1263.445878	-2.249626
139.600000	1589.257077	-0.283109
139.700000	904.504175	-0.089646
139.800000	2556.440854	-0.902558
139.900000	1833.312673	0.281065
140.000000	1752.527867	-1.008004
140.100000	1768.485520	1.022727
140.200000	2233.098876	-0.124417
140.300000	2135.350321	1.000493
140.400000	1533.024436	-1.108559
140.500000	2472.035933	0.550670
140.600000	1014.029316	0.545172
140.700000	1449.052470	0.181204
140.800000	970.063130	1.322633
140.900000	1522.486062	-0.021841
141.000000	2420.236962	0.173941
141.100000	836.737347	0.023011
141.200000	1406.779847	0.914119
141.300000	931.805172	0.258234
141.400000	775.215676	0.733639
141.500000	1126.094722	1.114482
141.600000	1121.487529	-1.390376
141.700000	2095.850634	0.616207
141.800000	1886.553889	0.549280
141.900000	1362.106863	0.743995
142.000000	1425.661975	0.280132
142.100000	754.434933	-0.523027
142.200000	975.868348	-1.021525
142.300000	1212.049683	-0.087880
142.400000	1646.273051	0.497249
142.500000	2017.193175	1.511186
142.600000	1896.431975	0.414969
142.700000	3314.311770	-0.162378
142.800000	582.557998	0.993907
142.900000	394.468612	-2.962269
143.000000	1095.765767	1.063745
143.100000	1617.916852	1.108642
143.200000	356.427881	0.691355
143.300000	1427.651429	0.512732
143.400000	984.110690	-0.035686
143.500000	591.695016	1.583982
143.600000	3332.642874	0.092184
143.700000	1393.919845	1.836090
143.800000	1157.800611	0.871097
143.900000	2706.794367	0.905348
144.000000	1791.132130	0.763635
144.100000	1715.178986	0.671329
144.200000	1259.970759	0.734368
144.300000	1985.162079	-0.214312
144.400000	1069.608158	0.125618
144.500000	1840.319876	1.702780
144.600000	931.188498	-0.595530
144.700000	1855.483297	0.363837
144.800000	738.085929	-0.975853
144.900000	2979.858321	0.318716
145.000000	967.374496	-0.002154
145.100000	1619.093183	0.890967
145.200000	2302.053475	-0.746807
145.300000	1060.610666	0.235656
145.400000	87.119815	-1.169417
145.500000	2641.707391	0.292021
145.600000	2078.404080	0.390217
145.700000	2865.574312	-0.343304
145.800000	1255.759373	-1.242511
145.900000	620.842825	0.113050
146.000000	1263.712694	-0.032689
146.100000	2125.263910	-0.607893
146.200000	2887.320030	0.250224
146.300000	1758.098337	0.463239
146.400000	1562.695966	-0.090463
146.500000	2477.618172	-0.301838
146.600000	2419.458716	-0.674011
146.700000	651.591345	-0.715324
146.800000	1589.150587	0.631267
146.900000	1540.820385	1.280890
147.000000	1701.413501	0.578421
147.100000	908.064103	1.364756
147.200000	638.913488	-0.437231
147.300000	2092.510091	-0.047320
147.400000	2147.168865	-0.502307
147.500000	2038.663819	0.528762
147.600000	1178.746886	-0.242675
147.700000	2003.497942	-0.401652
147.800000	2761.716087	0.740183
147.900000	1133.083514	0.584846
148.000000	3290.766954	-0.243032
148.100000	1730.602143	0.258177
148.200000	1276.375682	-1.116604
148.300000	1156.796369	-0.550012
148.400000	2822.669703	1.124998
148.500000	1969.419725	-0.064278
148.600000	2671.348696	-0.160587
148.700000	2299.994877	0.072149
148.800000	1754.924201	-1.115386
148.900000	398.382259	-0.037503
149.000000	1500.627159	0.016918
149.100000	2825.686106	-0.789709
149.200000	1245.549451	-0.190671
149.300000	2372.517825	1.019667
149.400000	2499.592255	-0.743853
149.500000	1386.176182	0.602644
149.600000	2071.826294	0.301472
149.700000	1070.553659	-1.109218
149.800000	1035.081674	-2.855618
149.900000	3195.799777	-0.491032
150.000000	231.771563	-1.675075
150.100000	1760.604185	0.479692
150.200000	2140.242684	-1.196983
150.300000	1183.881576	-0.239807
150.400000	688.709636	2.096573
150.500000	1120.675863	-0.669367
150.600000	1094.842029	0.367963
150.700000	1980.787688	-0.393696
150.800000	1740.230214	1.412990
150.900000	1088.612319	-0.307829
151.000000	2221.926828	0.738688
151.100000	1373.606177	-2.451276
151.200000	891.616280	0.174357
151.300000	1028.994353	-0.914657
151.400000	1754.144388	1.085468
151.500000	373.916876	-1.902894
151.600000	365.753754	3.055696
151.700000	779.554273	0.624226
151.800000	2808.637671	0.279486
151.900000	353.737225	0.417388
152.000000	1113.792117	-0.667271
152.100000	544.851186	0.329872
152.200000	1332.314987	1.614172
152.300000	1250.343610	1.028109
152.400000	1286.347459	-1.150166
152.500000	1381.428163	0.366479
152.600000	1775.030344	0.772036
152.700000	1447.376036	-1.889525
152.800000	1462.898596	-0.719048
152.900000	2564.026253	0.067218
153.000000	1053.876151	-1.414442
153.100000	2278.970698	-0.432865
153.200000	1289.893388	0.030588
153.300000	2987.529483	-1.742162
153.400000	2861.526512	0.789303
153.500000	2380.803924	0.134168
153.600000	1564.631119	-0.988132
153.700000	1293.867329	0.712703
153.800000	308.934936	-0.859240
153.900000	1553.945735	1.087451
154.000000	2504.262281	0.546059
154.100000	374.577128	-1.436448
154.200000	1006.390217	-0.167593
154.300000	1787.254195	0.195643
154.400000	1418.697205	1.307769
154.500000	984.375931	2.291139
154.600000	824.405508	0.684688
154.700000	1051.834744	1.419704
154.800000	915.262928	1.341457
154.900000	1103.765316	-0.698896
155.000000	212.630385	2.536613
155.100000	3302.742615	0.484666
155.200000	1167.876956	1.050023
155.300000	2159.455228	-0.271695
155.400000	602.313653	1.793281
155.500000	648.948045	-0.139265
155.600000	3981.747494	0.697075
155.700000	2479.664588	-1.127843
155.800000	1107.306930	0.166885
155.900000	1259.138196	-0.832262
156.000000	3195.473340	0.913183
156.100000	617.099987	1.373238
156.200000	2084.223762	0.049990
156.300000	635.062107	-1.306099
156.400000	3378.735802	0.625874
156.500000	2875.078233	-0.009807
156.600000	3045.839091	0.143781
156.700000	898.624775	0.218536
156.800000	2057.710489	0.204553
156.900000	1508.106186	1.353346
157.000000	1941.206916	-0.258341
157.100000	1129.173942	2.033134
157.200000	2336.426357	-0.027766
157.300000	2660.846223	0.515560
157.400000	491.646354	-0.692931
157.500000	975.757653	-0.743870
157.600000	1800.396245	-0.737413
157.700000	1533.315497	0.571794
157.800000	975.362278	1.351464
157.900000	550.859728	-1.055498
158.000000	634.767541	3.070529
158.100000	2077.992596	-0.374707
158.200000	1443.679227	0.970884
158.300000	887.155091	2.353884
158.400000	806.036803	-0.072352
158.500000	1666.329572	0.353246
158.600000	1724.214485	-0.208498
158.700000	1072.970876	-0.458784
158.800000	1693.453909	0.687249
158.900000	1264.758444	-0.308348
159.000000	2070.362417	0.205387
159.100000	1487.683663	-0.681644
159.200000	1901.112645	0.113831
159.300000	862.027734	0.873315
159.400000	3368.510692	0.347066
159.500000	2618.388087	0.201918
159.600000	2091.012445	-0.331038
159.700000	1294.335741	0.293191
159.800000	1896.755124	0.105084
159.900000	1310.284418	0.413956
160.000000	975.560020	0.338085
160.100000	2280.160648	0.421244
160.200000	1721.001068	-0.380277
160.300000	2553.287938	-0.670191
160.400000	1295.184600	0.285607
160.500000	767.127693	1.408993
160.600000	2881.185533	-0.491638
160.700000	1248.991011	-0.124103
160.800000	1881.788672	0.039467
160.900000	1499.039387	-1.382166
161.000000	2743.889860	0.542480
161.100000	1199.578393	-0.135877
161.200000	1382.355394	-0.123062
161.300000	1975.656176	-2.743840
161.400000	2366.500009	0.219298
161.500000	1879.267291	-1.243458
161.600000	2536.469769	-0.042945
161.700000	638.376541	2.098374
161.800000	2046.471888	-0.786663
161.900000	1406.843644	0.831321
162.000000	2224.225249	-1.018668
162.100000	2342.631423	1.626114
162.200000	2462.662432	-0.399638
162.300000	1167.626195	0.288424
162.400000	1222.745999	0.053603
162.500000	2053.509715	0.619779
162.600000	1244.722804	0.419833
162.700000	1506.506095	0.075213
162.800000	1430.196754	0.507262
162.900000	1821.688655	0.281532
163.000000	1270.683406	1.824025
163.100000	2492.542055	0.596583
163.200000	1981.161560	-0.391699
163.300000	1093.310288	-1.018712
163.400000	879.384532	2.334169
163.500000	2872.272417	0.567166
163.600000	1258.637304	-0.339383
163.700000	1154.104615	-0.285849
163.800000	2884.939750	0.970344
163.900000	1308.038144	-0.465970
164.000000	1974.321804	0.167286
164.100000	1115.400789	-1.738362
164.200000	1679.183108	0.454231
164.300000	882.997215	1.562600
164.400000	1679.897180	0.049575
164.500000	2013.057511	-0.724970
164.600000	1329.204520	0.008414
164.700000	1199.400573	2.849219
164.800000	2337.724167	-0.393507
164.900000	2584.584588	-0.071282
165.000000	2142.770526	-1.294924
165.100000	876.747169	2.309460
165.200000	2314.800550	-0.127976
165.300000	1160.211635	-1.819197
165.400000	1271.488510	-0.574838
165.500000	2820.649410	0.806057
165.600000	1506.659303	-0.285298
165.700000	1981.457971	-0.649686
165.800000	680.509112	2.201514
165.900000	1712.221310	-2.434030
166.000000	2316.617456	0.583147
166.100000	2439.449179	0.048117
166.200000	2076.043497	-0.541038
166.300000	1272.855651	-0.851887
166.400000	1825.855730	1.301994
166.500000	1420.072305	1.069319
166.600000	3867.307989	-0.663127
166.700000	999.271471	0.808561
166.800000	1629.934875	0.397750
166.900000	1953.293064	1.023865
167.000000	1258.619113	-1.248455
167.100000	1166.750455	-0.066529
167.200000	1020.148693	0.301604
167.300000	1880.410775	0.825631
167.400000	928.015866	-0.849532
167.500000	2828.813839	-0.171524
167.600000	1669.005847	1.225388
167.700000	2043.180414	0.594419
167.800000	2283.321092	-0.719246
167.900000	2718.008994	0.625374
168.000000	376.780383	1.804133
168.100000	1210.274884	0.094480
168.200000	1217.683838	0.162022
168.300000	1308.677738	-0.356568
168.400000	1652.061272	-2.663751
168.500000	1556.003464	0.140978
168.600000	1028.117466	0.979690
168.700000	1793.621291	-0.580122
168.800000	677.866573	-1.063401
168.900000	807.905424	-3.081176
169.000000	2474.952848	0.956059
169.100000	924.420951	-0.467737
169.200000	2016.661591	0.459773
169.300000	2018.492455	-0.595489
169.400000	2235.795529	1.042077
169.500000	239.352879	-0.631468
169.600000	2509.589885	-0.757398
169.700000	2111.608122	1.640569
169.800000	1240.632732	-0.012020
169.900000	1536.709627	0.721525
170.000000	1940.190345	-0.721984
170.100000	1228.170910	1.593391
170.200000	507.923986	2.503463
170.300000	1275.231125	1.662177
170.400000	2542.623965	-0.251138
170.500000	3245.256703	-0.368694
170.600000	860.751717	2.621422
170.700000	1790.378553	0.519254
170.800000	1495.349547	0.169313
170.900000	1381.706753	1.191112
171.000000	244.147591	-1.935180
171.100000	2314.460848	0.162276
171.200000	589.302060	-1.301411
171.300000	642.795294	1.264600
171.400000	1248.459959	0.904554
171.500000	1790.107753	1.083123
171.600000	2467.271705	-0.877454
171.700000	2077.498361	-1.294120
171.800000	886.623725	-2.829742
171.900000	477.518733	0.020758
172.000000	1558.531476	0.644870
172.100000	2225.384494	0.033664
172.200000	2605.197548	-0.934875
172.300000	2219.702962	0.025240
172.400000	1081.181823	0.796838
172.500000	1668.189205	-0.380380
172.600000	2060.667681	-0.620745
172.700000	1606.836807	1.418231
172.800000	935.585603	1.002943
172.900000	1515.200965	-0.908304
173.000000	950.318944	0.520537
173.100000	1951.270307	0.246984
173.200000	232.320361	0.243473
173.300000	2133.551693	0.603555
173.400000	492.521064	1.888183
173.500000	3237.791744	-0.436644
173.600000	1273.554485	1.782146
173.700000	2406.296717	0.299527
173.800000	2401.664783	0.302635
173.900000	1408.827714	0.058829
174.000000	2880.996403	0.920549
174.100000	1433.786938	-1.261172
174.200000	2151.262768	0.736178
174.300000	81.770880	-2.658016
174.400000	2263.792485	0.393214
174.500000	3074.395527	1.579757
174.600000	2248.489841	0.644919
174.700000	1780.023173	-0.576215
174.800000	1592.899819	-0.802188
174.900000	1403.484829	0.409221
175.000000	323.642349	-0.588644
175.100000	1551.380552	0.942335
175.200000	2537.953696	0.101343
175.300000	1698.148822	0.632679
175.400000	398.899185	-0.405402
175.500000	2204.386688	-0.118244
175.600000	2383.200478	-1.477822
175.700000	1436.719611	1.376532
175.800000	2545.192402	0.572908
175.900000	969.684796	1.313478
176.000000	1537.068540	-0.625158
176.100000	2975.549471	-0.751195
176.200000	297.439795	-1.513303
176.300000	2039.908853	0.943314
176.400000	2471.129493	0.355165
176.500000	2724.162809	0.456463
176.600000	1249.402541	1.204886
176.700000	2173.909841	0.428204
176.800000	2094.620418	0.311085
176.900000	2397.030078	0.250076
177.000000	881.999676	1.103256
177.100000	416.324289	-0.178076
177.200000	555.298623	1.092647
177.300000	1369.311342	-0.546766
177.400000	1799.409399	0.443760
177.500000	1308.537830	-3.048996
177.600000	2893.691674	0.751103
177.700000	1574.902650	-0.502069
177.800000	2152.565487	-0.601476
177.900000	1486.670573	-0.543068
178.000000	1118.149054	-0.482427
178.100000	2782.853821	0.417929
178.200000	2825.064531	-0.351043
178.300000	2882.253100	-0.463603
178.400000	1444.873632	1.532891
178.500000	2130.090774	-0.580778
178.600000	2061.009817	-1.522029
178.700000	1650.563672	-0.416561
178.800000	1895.412247	0.337538
178.900000	883.728131	-1.163639
179.000000	4823.040607	-0.023385
179.100000	3553.030598	-0.942223
179.200000	2823.810385	-0.985958
179.300000	1245.829607	0.412315
179.400000	3661.237016	-0.274328
179.500000	2527.589498	-0.719539
179.600000	3289.085124	1.008190
179.700000	722.326820	0.400682
179.800000	1722.196354	-0.177689
179.900000	1187.893703	-0.639231
180.000000	973.616210	-1.116622
180.100000	683.376687	2.408818
180.200000	2159.052326	0.105380
180.300000	2000.309365	0.710741
180.400000	1941.760428	-1.372524
180.500000	943.250444	-0.445638
180.600000	1316.224141	1.069887
180.700000	1620.335339	-0.658230
180.800000	3067.368136	-0.436203
180.900000	1474.196684	2.550334
181.000000	777.327404	1.384154
181.100000	1612.910867	0.628495
181.200000	1127.167078	0.795827
181.300000	3146.398229	-0.598906
181.400000	678.741425	-0.516233
181.500000	2097.761161	-0.677528
181.600000	3060.107974	-1.987535
181.700000	1154.888539	-0.101253
181.800000	1977.663532	0.951177
181.900000	2432.941715	-1.094583
182.000000	4070.870804	-0.077705
182.100000	3814.938256	-0.623952
182.200000	71.410193	2.443612
182.300000	281.132859	2.513500
182.400000	3118.048371	0.072166
182.500000	1789.237462	-1.359339
182.600000	2362.668844	0.925601
182.700000	1241.592875	0.110455
182.800000	1071.389185	-0.431322
182.900000	512.795677	-0.812370
183.000000	1139.032811	3.073145
183.100000	369.208483	-0.563820
183.200000	2295.451893	0.527916
183.300000	681.322721	-3.003058
183.400000	900.339646	0.185969
183.500000	1099.236187	2.114295
183.600000	330.404406	-0.430716
183.700000	542.665012	0.186031
183.800000	1454.802625	-1.678158
183.900000	1888.496480	-3.079863
184.000000	2644.628032	1.464192
184.100000	1324.748586	1.986216
184.200000	1335.349564	-0.801800
184.300000	1732.678267	-1.506733
184.400000	1538.145977	1.040489
184.500000	1752.353236	-1.769325
184.600000	2697.347007	-0.738995
184.700000	1502.082685	1.365140
184.800000	2187.660745	1.071441
184.900000	1351.306843	0.392997
185.000000	2439.859602	0.163603
185.100000	1070.789650	0.668360
185.200000	1655.225827	-1.110335
185.300000	878.779549	0.998253
185.400000	1867.117679	0.255664
185.500000	676.373067	0.321744
185.600000	3154.038538	1.194504
185.700000	947.214411	0.269296
185.800000	2825.327849	-0.910260
185.900000	1783.166908	1.814084
186.000000	897.934885	2.118136
186.100000	2058.497789	0.106042
186.200000	1851.330120	0.889531
186.300000	1768.459374	-0.682699
186.400000	1399.688092	-1.267985
186.500000	1152.151042	0.644711
186.600000	1110.176886	1.583753
186.700000	2206.275695	-1.204292
186.800000	1675.377008	-0.660236
186.900000	904.407178	2.366538
187.000000	663.761261	0.220983
187.100000	1167.370564	-0.683705
187.200000	1827.807843	0.396363
187.300000	1169.488837	0.436904
187.400000	2460.710132	0.349947
187.500000	1378.749255	-0.438097
187.600000	2583.946733	-0.496584
187.700000	2373.064130	1.408841
187.800000	3450.063836	0.758654
187.900000	1942.626015	0.042770
188.000000	2916.139206	0.539817
188.100000	2689.678077	0.194337
188.200000	1396.735989	0.145033
188.300000	1773.488227	1.288622
188.400000	2989.451326	0.125755
188.500000	2737.987551	1.502993
188.600000	3585.567354	1.137223
188.700000	2508.374711	0.441403
188.800000	1407.689858	-0.614141
188.900000	160.062752	2.344372
189.000000	2825.327532	0.176579
189.100000	528.584285	0.897817
189.200000	639.346832	0.852579
189.300000	663.173362	-0.770311
189.400000	1768.185269	0.006502
189.500000	1893.269493	0.394146
189.600000	1397.817648	-0.064211
189.700000	2717.865371	-0.186173
189.800000	1327.034736	-0.719126
189.900000	1946.735277	0.711746
190.000000	2180.327099	-0.414724
190.100000	1241.583898	-0.080210
190.200000	1938.928961	-0.687907
190.300000	523.047092	-0.374955
190.400000	1562.470563	-0.143538
190.500000	2019.330534	-0.397877
190.600000	2010.276231	-0.507068
190.700000	1962.432089	1.188603
190.800000	1104.114529	0.860079
190.900000	1052.587666	-0.093204
191.000000	1730.181061	0.780671
191.100000	3268.131073	0.196316
191.200000	771.334653	-0.847202
191.300000	2314.353608	2.105513
191.400000	1027.246176	-0.708879
191.500000	1426.921446	2.491499
191.600000	2318.988816	1.064717
191.700000	1130.994847	0.166602
191.800000	2138.397458	-1.689281
191.900000	602.715792	-1.137128
192.000000	1277.841307	-0.163288
192.100000	2175.490272	-1.311828
192.200000	1850.706806	-0.088653
192.300000	2040.281372	-0.870208
192.400000	2115.465345	-0.268120
192.500000	969.021957	-0.034775
192.600000	2475.688667	-0.692817
192.700000	1073.328989	-0.188574
192.800000	2866.578407	-0.092091
192.900000	2170.770281	-0.037427
193.000000	2474.402614	-0.356710
193.100000	2093.272763	0.094638
193.200000	1626.307452	-0.678621
193.300000	1583.576187	0.085529
193.400000	3120.046153	-0.313709
193.500000	2633.811335	-0.015301
193.600000	3109.411472	-0.537146
193.700000	1409.090338	0.056606
193.800000	1999.454446	1.272927
193.900000	1037.502642	2.219015
194.000000	1383.867999	0.101281
194.100000	2659.976118	0.096351
194.200000	1771.964367	-2.086936
194.300000	694.828289	-2.513792
194.400000	745.078204	-1.572984
194.500000	1034.656391	-2.576443
194.600000	1133.291795	0.351847
194.700000	1003.438757	-0.737754
194.800000	1922.407105	-1.812618
194.900000	915.197504	-0.049171
195.000000	2145.266286	-0.528213
195.100000	754.625770	-1.224588
195.200000	1046.278191	0.020077
195.300000	3591.698478	0.226932
195.400000	487.094415	0.878707
195.500000	2437.578457	-0.444733
195.600000	1763.564557	-0.073303
195.700000	548.198567	0.223757
195.800000	2361.878674	-0.169158
195.900000	1238.169543	0.723881
196.000000	1620.322780	0.377310
196.100000	1482.927761	0.217436
196.200000	1501.986495	0.577644
196.300000	3403.245689	0.416612
196.400000	2347.953149	0.751079
196.500000	1894.406304	0.170573
196.600000	1096.946965	0.103502
196.700000	2057.979214	-0.151441
196.800000	2066.254093	1.802691
196.900000	425.014032	-2.614179
197.000000	1143.606949	0.959215
197.100000	1576.340583	0.375233
197.200000	1091.340882	0.157245
197.300000	620.947845	-2.137198
197.400000	686.044213	-0.726833
197.500000	900.603539	-1.003308
197.600000	237.808759	0.299974
197.700000	1839.574074	-0.958204
197.800000	1549.420191	-1.012070
197.900000	1473.148800	-0.738485
198.000000	1660.524106	-0.692589
198.100000	1099.197356	-1.945513
198.200000	1217.584021	0.897805
198.300000	2370.591302	0.336080
198.400000	2116.295824	-1.575477
198.500000	2273.476115	-0.272409
198.600000	466.802561	-0.466557
198.700000	2101.814627	-0.052249
198.800000	2767.516206	0.195280
198.900000	2945.054597	0.431085
199.000000	723.602005	0.742905
199.100000	839.465234	0.094218
199.200000	1123.309513	0.996623
199.300000	2292.395523	0.357965
199.400000	1462.467875	0.051893
199.500000	785.560321	2.262866
199.600000	2225.606243	0.284701
199.700000	2208.893407	0.034203
199.800000	1756.343461	2.406241
199.900000	1075.592497	-0.801489
200.000000	1326.885764	-0.429979
200.100000	2710.203255	0.096128
200.200000	725.126806	-2.055472
200.300000	1774.143017	-0.956194
200.400000	521.439477	0.860437
200.500000	1204.002224	-2.255305
200.600000	2272.257746	0.224712
200.700000	3453.857633	-0.295122
200.800000	2985.107929	-0.886047
200.900000	1616.788580	-0.721965
201.000000	3011.903270	-0.158383
201.100000	3043.945767	-0.610438
201.200000	1842.755336	0.601077
201.300000	3607.022115	-0.284337
201.400000	1434.519486	-0.377626
201.500000	2165.174785	0.141662
201.600000	1466.706383	1.002762
201.700000	2080.699237	-0.485667
201.800000	788.730856	-0.969702
201.900000	2036.781336	0.663663
202.000000	1808.153324	1.119861
202.100000	889.479219	1.730791
202.200000	2419.172034	0.163294
202.300000	172.335364	2.808125
202.400000	348.119109	-0.123543
202.500000	210.744511	-2.766742
202.600000	1901.579221	0.514838
202.700000	980.004169	0.707806
202.800000	525.507242	1.829521
202.900000	944.730832	-2.882033
203.000000	827.313828	0.160808
203.100000	910.016432	0.321171
203.200000	2111.008844	-1.585714
203.300000	1081.668937	-0.015170
203.400000	662.744859	-2.906188
203.500000	790.736338	-0.178589
203.600000	2183.500532	-0.059485
203.700000	2512.868180	-0.492183
203.800000	2662.890523	-0.429185
203.900000	635.858387	0.577260
204.000000	2088.585939	0.386094
204.100000	861.798223	-0.330439
204.200000	2093.054466	1.024511
204.300000	2001.342658	0.259204
204.400000	2133.826762	-0.131877
204.500000	1859.175225	0.882804
204.600000	2085.844115	1.893975
204.700000	1981.607187	-0.969606
204.800000	1019.066382	1.473275
204.900000	1395.202575	0.591322
205.000000	378.343659	-0.928747
205.100000	1222.752392	-1.325235
205.200000	2054.485803	0.545938
205.300000	565.645396	-1.647619
205.400000	1569.801937	0.442759
205.500000	271.138430	-2.718265
205.600000	863.600615	-1.220893
205.700000	800.061393	2.853248
205.800000	1263.807249	1.755695
205.900000	712.139287	-1.312991
206.000000	1378.159892	1.238391
206.100000	2065.517702	-1.617314
206.200000	1406.049553	-0.857282
206.300000	2260.325604	0.010781
206.400000	1561.763801	-0.381156
206.500000	1452.066791	-0.157170
206.600000	3042.101350	0.361654
206.700000	3485.100067	-0.335106
206.800000	618.761111	-0.184529
206.900000	1623.330706	0.053225
207.000000	3595.261500	0.284247
207.100000	2243.556049	1.951239
207.200000	2662.426033	0.707264
207.300000	862.473889	-1.146115
207.400000	2586.534249	0.196115
207.500000	587.889550	0.698969
207.600000	2518.852808	0.162873
207.700000	999.073818	-0.510030
207.800000	660.682998	2.047022
207.900000	2545.068054	0.863802
208.000000	1100.779463	-0.630184
208.100000	1717.171836	-0.152632
208.200000	992.328338	0.751165
208.300000	1763.130677	-0.138968
208.400000	294.011032	0.517960
208.500000	1041.287808	0.205292
208.600000	1826.875562	-0.386030
208.700000	791.043985	-1.765453
208.800000	2339.639307	-0.379217
208.900000	1311.004901	-0.572189
209.000000	1868.058997	-0.207977
209.100000	2760.471223	-0.025856
209.200000	1644.980820	0.876901
209.300000	3225.233067	-0.147079
209.400000	1972.160139	-0.675526
209.500000	1984.835014	0.109510
209.600000	2784.695518	0.623047
209.700000	1971.822177	0.026206
209.800000	625.491660	0.519714
209.900000	1652.958040	0.663155
210.000000	2122.221173	0.630782
210.100000	1462.771164	1.238763
210.200000	1979.817525	0.432868
210.300000	508.507491	0.241515
210.400000	1902.817983	0.471460
210.500000	498.591113	-1.518785
210.600000	1140.868033	0.838115
210.700000	404.622071	-2.351922
210.800000	458.937569	1.442640
210.900000	1159.903849	0.056989
211.000000	1718.163079	-0.419972
211.100000	1012.054802	-0.498563
211.200000	449.469003	-1.891159
211.300000	1167.124209	-0.759221
211.400000	891.889869	-0.690363
211.500000	1268.400563	0.251077
211.600000	2081.479891	-0.267911
211.700000	2596.199036	-0.749918
211.800000	1731.835398	0.109576
211.900000	1570.875638	-1.619101
212.000000	2696.868444	-0.694931
212.100000	1859.592663	0.862577
212.200000	3162.443782	0.056378
212.300000	1476.138544	0.073113
212.400000	2208.954175	-0.486781
212.500000	603.995735	2.583965
212.600000	2269.612317	-0.137904
212.700000	1137.133201	0.230402
212.800000	1693.227134	0.514117
212.900000	2501.146246	0.862945
213.000000	1326.005866	0.182618
213.100000	721.695607	1.464055
213.200000	2282.388864	-0.931728
213.300000	1410.068745	-0.108107
213.400000	709.261651	0.831066
213.500000	1374.781631	-0.231468
213.600000	893.079696	2.237515
213.700000	754.631214	-2.385502
213.800000	1829.510159	-1.122273
213.900000	2848.500915	0.275558
214.000000	3161.552346	-0.830824
214.100000	3117.719506	-1.467679
214.200000	1606.836352	0.254784
214.300000	1106.717024	-0.789463
214.400000	340.175536	-0.733357
214.500000	2324.969727	0.489270
214.600000	2711.539918	-0.342741
214.700000	1788.767315	-0.584426
214.800000	1741.344203	-0.574760
214.900000	2244.695607	-1.001417
215.000000	1426.901371	-0.289518
215.100000	1726.012928	0.612196
215.200000	3509.758058	-0.007600
215.300000	1307.509912	-0.369783
215.400000	2770.189899	-0.288494
215.500000	957.905656	2.284889
215.600000	1405.265595	-0.579303
215.700000	2642.797975	1.031167
215.800000	1969.480427	0.630337
215.900000	1628.401887	0.111354
216.000000	433.038343	1.022069
216.100000	1087.970689	0.384556
216.200000	234.993520	1.725258
216.300000	1414.601882	-1.233193
216.400000	1599.551908	-0.771884
216.500000	774.722275	-1.201590
216.600000	182.936867	-0.307469
216.700000	863.363782	1.670676
216.800000	1652.724034	0.505790
216.900000	1696.718553	0.935861
217.000000	1874.812049	-0.568282
217.100000	1381.429225	-0.717880
217.200000	2137.537653	0.263595
217.300000	1022.100740	-0.148666
217.400000	581.416830	0.163816
217.500000	1817.421884	1.247002
217.600000	2519.036548	-0.179890
217.700000	1627.612647	-0.021304
217.800000	826.705124	-0.280812
217.900000	1841.454180	0.008069
218.000000	426.323081	-1.350873
218.100000	3175.960879	1.012756
218.200000	545.412684	0.779075
218.300000	2799.150886	0.054374
218.400000	1302.056679	0.911134
218.500000	1453.664398	-0.448296
218.600000	1559.801281	0.646172
218.700000	1792.394571	1.462250
218.800000	604.325709	0.932627
218.900000	960.229886	-0.095667
219.000000	1583.868055	-0.837062
219.100000	138.913918	1.597132
219.200000	2821.783436	0.385854
219.300000	1659.905648	-1.044159
219.400000	925.227347	-0.948373
219.500000	2469.295938	-0.708638
219.600000	1263.723860	0.120012
219.700000	2419.519702	-0.903547
219.800000	2120.678644	-0.305982
219.900000	885.406012	-0.398733
220.000000	893.854138	0.319307
220.100000	1114.142676	-0.266705
220.200000	3085.358878	-0.356538
220.300000	902.264336	0.138599
220.400000	890.517677	-2.440312
220.500000	2481.525482	0.953416
220.600000	2532.387457	-0.441498
220.700000	2022.997919	-0.534214
220.800000	2281.229200	0.599891
220.900000	2261.669169	-0.395603
221.000000	754.756802	1.333602
221.100000	1451.280316	0.556463
221.200000	1408.927179	0.565173
221.300000	1288.615822	0.402205
221.400000	1248.266142	-0.403475
221.500000	1565.029366	-0.142936
221.600000	1490.428127	0.139648
221.700000	1797.799333	0.433209
221.800000	1367.363563	-0.038785
221.900000	2336.916753	-1.015165
222.000000	491.081846	-0.745655
222.100000	1104.716803	2.171059
222.200000	2612.116241	0.275084
222.300000	2820.543561	-0.693108
222.400000	2016.684880	-0.461762
222.500000	1869.607738	0.191389
222.600000	2842.228785	-0.351362
222.700000	2155.803525	-0.520122
222.800000	1548.315055	-0.937630
222.900000	1614.141114	0.403728
223.000000	935.329235	0.540458
223.100000	3462.668295	-0.076946
223.200000	2023.151582	-0.255656
223.300000	1393.487355	-0.982816
223.400000	1461.742120	1.672696
223.500000	1416.841333	0.588530
223.600000	1974.802334	-0.140821
223.700000	837.288628	-0.473777
223.800000	1334.998031	1.487342
223.900000	1694.597576	-0.259065
224.000000	1267.669844	-0.801620
224.100000	449.296207	2.663237
224.200000	1871.442565	0.469480
224.300000	507.808371	-1.465506
224.400000	1531.279144	0.759604
224.500000	1992.083302	-1.232843
224.600000	1573.249584	1.314033
224.700000	1258.658470	0.352661
224.800000	1485.395551	-0.246147
224.900000	2105.389819	-0.158944
225.000000	562.710027	-1.041130
225.100000	1326.854617	1.831869
225.200000	2305.506955	-0.415299
225.300000	1959.419707	-0.957606
225.400000	915.669972	1.044448
225.500000	2077.712166	0.873964
225.600000	1713.920290	0.014781
225.700000	253.099883	-2.824983
225.800000	1618.392742	-0.260798
225.900000	244.738859	1.908207
226.000000	2380.118609	0.606631
226.100000	2468.979487	-0.222101
226.200000	1459.466760	0.188451
226.300000	1235.031128	0.376150
226.400000	734.520963	-3.049669
226.500000	2473.762491	0.234941
226.600000	826.640414	-0.877344
226.700000	703.530705	-0.299221
226.800000	2194.117681	1.025379
226.900000	1567.179937	-0.214106
227.000000	2375.164669	-1.151933
227.100000	1197.212053	2.197339
227.200000	2008.482997	0.351057
227.300000	1428.186983	-0.632749
227.400000	1455.958475	0.016211
227.500000	1262.803313	-0.876882
227.600000	424.652579	0.382453
227.700000	1159.201343	0.462929
227.800000	1448.743161	-0.057942
227.900000	1570.956607	-1.113294
228.000000	543.238167	1.647052
228.100000	3474.825274	0.064023
228.200000	2212.517038	-0.491435
228.300000	1391.176747	-0.586248
228.400000	1552.053442	0.821027
228.500000	1146.673281	0.640028
228.600000	2692.480192	0.416816
228.700000	1114.599289	-0.521636
228.800000	2088.441408	0.682955
228.900000	747.452405	0.859673
229.000000	2467.384616	0.766150
229.100000	2652.839266	-0.951233
229.200000	1561.154814	-0.295824
229.300000	1162.493110	0.617373
229.400000	1481.683197	0.939158
229.500000	1404.298151	-0.489576
229.600000	1754.289510	0.273021
229.700000	1368.749712	-0.158958
229.800000	2000.850649	0.100918
229.900000	2046.349156	0.039411
230.000000	1301.159725	-0.907950
230.100000	1703.813771	1.446651
230.200000	2914.514246	0.024174
230.300000	1340.581730	-0.783470
230.400000	1861.759082	0.097965
230.500000	2261.754405	-0.461177
230.600000	1995.860031	-0.800878
230.700000	2387.691919	-0.154974
230.800000	645.124500	1.108092
230.900000	470.518465	-1.200149
231.000000	1855.752444	0.348109
231.100000	2060.492183	-0.184256
231.200000	1173.454056	-1.130898
231.300000	1324.922244	-0.680957
231.400000	1991.621683	1.208628
231.500000	2488.139570	0.049845
231.600000	141.440646	1.617868
231.700000	966.268632	-0.297833
231.800000	1318.592656	0.114742
231.900000	1444.254543	0.340764
232.000000	1619.143445	0.088178
232.100000	2283.009602	-1.113755
232.200000	1664.061967	0.138568
232.300000	457.937144	-2.156160
232.400000	1558.730520	0.486088
232.500000	2087.580146	0.046502
232.600000	1435.287788	0.374039
232.700000	1531.433254	-0.145654
232.800000	1868.254017	0.095001
232.900000	1446.005844	0.071004
233.000000	834.409091	2.887091
233.100000	1775.907910	0.308596
233.200000	1104.616722	0.072443
233.300000	1374.866848	-0.506863
233.400000	2836.089223	0.415859
233.500000	3049.538702	-0.427205
233.600000	2429.831145	-0.756330
233.700000	709.647813	-1.981982
233.800000	1535.946953	0.751999
233.900000	1512.140036	-0.748439
234.000000	2751.107931	0.708764
234.100000	671.818967	-0.655582
234.200000	1819.390811	-1.204162
234.300000	1901.190250	-0.469322
234.400000	1988.860197	0.150504
234.500000	1062.648552	-1.044960
234.600000	772.901266	-0.750610
234.700000	1547.520735	-0.155138
234.800000	1841.174055	-0.372682
234.900000	2190.743874	-0.396411
235.000000	1069.328739	-0.568263
235.100000	698.428212	0.490464
235.200000	2276.571229	-0.130159
235.300000	393.435708	-1.221854
235.400000	511.712740	-0.923551
235.500000	2929.846859	0.267512
235.600000	1081.114532	-0.824226
235.700000	2338.733621	-0.406502
235.800000	2152.086602	0.163365
235.900000	1059.729933	-0.138513
236.000000	501.936575	-1.370838
236.100000	1902.053120	0.675538
236.200000	642.164484	-0.685370
236.300000	1907.892652	0.589471
236.400000	1848.569525	0.906471
236.500000	2874.557317	-0.385265
236.600000	1513.366839	1.212887
236.700000	418.397593	2.145325
236.800000	1206.830515	0.804538
236.900000	361.048531	-1.157070
237.000000	2707.424350	0.169602
237.100000	592.775181	-0.069565
237.200000	2826.859574	-0.211005
237.300000	1271.018796	-0.233561
237.400000	1625.501419	-0.084116
237.500000	1128.746400	0.118204
237.600000	1001.325329	0.645884
237.700000	2129.483072	0.615033
237.800000	2959.823464	-0.424048
237.900000	957.693083	-0.403719
238.000000	832.885954	1.132673
238.100000	1806.473978	-0.558346
238.200000	1415.849479	0.027592
238.300000	829.661426	-0.626039
238.400000	1129.374170	0.928462
238.500000	2797.452864	0.743932
238.600000	1027.942832	-0.527788
238.700000	1565.970301	0.152686
238.800000	2313.431072	0.076043
238.900000	374.881263	0.798193
239.000000	1853.325904	1.090206
239.100000	1361.728949	-0.263371
239.200000	1352.287800	0.810524
239.300000	1344.600200	1.044402
239.400000	2292.352253	0.182785
239.500000	1022.317602	-0.887847
239.600000	729.684994	-0.531316
239.700000	1728.454958	0.576287
239.800000	1173.387922	0.465503
239.900000	1922.611843	-1.009577
240.000000	392.865013	-0.069223
240.100000	1690.443990	0.478306
240.200000	2434.846202	-0.477493
240.300000	824.927185	0.552856
240.400000	966.639654	0.641499
240.500000	1001.833942	-0.947601
240.600000	951.903353	0.901604
240.700000	1735.621274	0.082570
240.800000	2419.420721	-0.779167
240.900000	1349.952050	0.387505
241.000000	1701.690742	0.393248
241.100000	2748.442881	-0.075852
241.200000	442.996471	-1.217919
241.300000	1455.111392	-0.008929
241.400000	2310.408632	0.569171
241.500000	2232.383805	-0.315080
241.600000	1573.991933	0.465586
241.700000	806.320506	1.152912
241.800000	1676.402894	0.302655
241.900000	857.293815	-0.494456
242.000000	1224.095556	-0.789465
242.100000	949.287088	-0.408141
242.200000	1576.141466	-0.700324
242.300000	1459.792714	-0.175299
242.400000	1926.826918	-0.405325
242.500000	1566.199414	-0.620707
242.600000	1026.113912	1.172598
242.700000	1952.719537	0.199491
242.800000	2325.901486	-0.353623
242.900000	898.563126	-0.759130
243.000000	601.631683	0.375486
243.100000	1550.621575	0.138824
243.200000	1572.632487	-0.483964
243.300000	1965.674544	-0.804453
243.400000	1539.443478	-0.272807
243.500000	2669.285388	0.049535
243.600000	387.844570	-0.914410
243.700000	614.827243	0.068448
243.800000	2084.806918	-0.066450
243.900000	395.702893	0.520472
244.000000	2925.319495	0.457177
244.100000	492.208045	-0.454781
244.200000	1526.436971	0.846954
244.300000	2132.950231	0.671877
244.400000	1078.239034	-0.417930
244.500000	1883.796469	-0.510188
244.600000	1399.657546	-0.229994
244.700000	255.176467	2.520230
244.800000	1663.458878	0.515134
244.900000	1022.665085	-0.645439
245.000000	237.528878	1.436602
245.100000	1766.334810	0.289640
245.200000	1950.995478	-0.592089
245.300000	1320.273669	0.251160
245.400000	1673.762383	-0.423561
245.500000	394.113158	2.642147
245.600000	1494.979418	1.011100
245.700000	1870.165995	-0.204090
245.800000	1362.849930	-0.618376
245.900000	1580.165317	-0.418268
246.000000	1467.999665	0.108887
246.100000	2554.887847	0.020681
246.200000	581.660741	0.570067
246.300000	967.080505	-0.222866
246.400000	2537.118048	0.437208
246.500000	1154.995322	-0.338830
246.600000	1169.116464	-0.360571
246.700000	1128.617851	0.360926
246.800000	1365.572273	0.212880
246.900000	940.385127	0.575014
247.000000	1037.207293	0.723494
247.100000	448.489408	2.788260
247.200000	1580.289146	0.601724
247.300000	2295.766050	0.793403
247.400000	1456.751928	-0.211605
247.500000	464.373226	-1.143189
247.600000	710.003512	1.106193
247.700000	1210.038222	0.284293
247.800000	1472.296661	-0.320408
247.900000	1347.224655	0.011307
248.000000	1124.430486	1.893737
248.100000	2462.409073	-0.038981
248.200000	995.754465	-0.103672
248.300000	555.831029	-1.154761
248.400000	883.189025	-0.404908
248.500000	1299.331094	0.201367
248.600000	1215.013933	0.167940
248.700000	2750.921487	-0.115013
248.800000	1016.903497	-0.382310
248.900000	272.024463	1.289460
249.000000	3897.114929	0.307914
249.100000	2472.115655	-0.105084
249.200000	271.114262	0.876998
249.300000	1666.040712	0.465647
249.400000	1620.170676	0.911946
249.500000	1249.350050	-0.153416
249.600000	1321.714793	-0.909066
249.700000	1603.623910	0.454768
249.800000	2773.526722	0.116038
249.900000	816.552892	-0.169310
250.000000	973.966537	0.279113
250.100000	845.888802	-0.074964
250.200000	445.044038	1.882605
250.300000	1989.061858	0.110284
250.400000	2011.786987	-0.459902
250.500000	1374.502261	0.650609
250.600000	1829.135688	0.784675
250.700000	916.470908	-0.119263
250.800000	1637.903093	-0.256993
250.900000	560.960484	-2.651098
251.000000	923.842061	0.901412
251.100000	3719.260642	-0.194693
251.200000	1299.388268	-0.559832
251.300000	465.206590	-0.231714
251.400000	2482.330787	0.114207
251.500000	1860.182599	-0.012250
251.600000	2110.300847	-0.205950
251.700000	1892.900786	-0.033485
251.800000	967.157033	0.470103
251.900000	778.855269	0.542590
252.000000	3080.033996	0.282605
252.100000	738.535764	-0.725438
252.200000	1293.397409	-0.153439
252.300000	1784.078979	0.365446
252.400000	2009.222674	0.160637
252.500000	1380.681404	-0.305691
252.600000	591.295066	0.838847
252.700000	1760.213136	0.934734
252.800000	1682.065058	-0.156643
252.900000	2368.505899	-0.226326
253.000000	537.905693	0.155503
253.100000	887.429224	-0.365097
253.200000	736.939585	-0.634771
253.300000	1108.529602	-0.325688
253.400000	1196.024814	-0.697168
253.500000	848.285210	-0.139104
253.600000	738.063494	1.004272
253.700000	2022.008080	-0.420522
253.800000	1284.019679	-0.043507
253.900000	422.712795	-1.622516
254.000000	1740.107814	-0.201623
254.100000	1625.623081	-0.487346
254.200000	1571.930700	-0.139357
254.300000	1228.672115	0.345820
254.400000	2334.857641	0.425024
254.500000	2050.998587	-0.335522
254.600000	713.741785	-1.344977
254.700000	1116.784734	0.248755
254.800000	1213.352700	-0.583272
254.900000	1643.155007	0.541564
255.000000	2266.630520	-0.027545
255.100000	969.860334	-0.380824
255.200000	1135.496022	0.677401
255.300000	1886.604803	-0.215241
255.400000	475.543156	-1.255250
255.500000	775.926510	-0.387100
255.600000	1438.418888	0.444724
255.700000	1524.872790	1.030914
255.800000	1458.617622	0.026105
255.900000	1471.475589	-0.539675
256.000000	423.511052	1.500840
256.100000	2309.572405	-0.410161
256.200000	825.594208	-0.996774
256.300000	1910.287444	-0.208255
256.400000	1279.419526	-0.461757
256.500000	355.414587	-2.394037
256.600000	1744.560124	-0.444431
256.700000	1560.134847	-0.542012
256.800000	1303.427957	0.249534
256.900000	1431.911961	0.446601
257.000000	1766.481774	0.013744
257.100000	1142.623033	-0.441979
257.200000	280.356939	-0.110698
257.300000	1532.932665	0.501733
257.400000	2038.945049	0.097331
257.500000	1387.577042	-0.946661
257.600000	922.658978	-0.170621
257.700000	1448.416468	0.126810
257.800000	1533.652776	-0.163817
257.900000	1602.030189	0.295523
258.000000	1297.772599	0.126001
258.100000	1391.911187	0.585714
258.200000	1276.794476	0.962391
258.300000	1656.358620	0.359553
258.400000	414.268909	0.345729
258.500000	716.558044	-0.727798
258.600000	1503.027582	0.646490
258.700000	1689.558780	-0.351726
258.800000	1771.298480	-0.165781
258.900000	168.772112	1.585367
259.000000	1796.684237	0.263799
259.100000	1583.506075	-0.136716
259.200000	1611.342807	-0.700184
259.300000	1845.762483	0.548629
259.400000	2194.884551	0.221361
259.500000	1610.865839	-0.326488
259.600000	1402.013179	0.534456
259.700000	1098.073137	-0.024150
259.800000	779.912383	-0.893006
259.900000	1842.356075	0.499364
260.000000	1933.823348	-0.163447
260.100000	1166.616554	-0.465258
260.200000	1753.257820	0.850395
260.300000	1200.051987	0.468581
260.400000	1638.296965	-0.257817
260.500000	1088.917908	0.083541
260.600000	1133.003288	1.162014
260.700000	2041.015085	0.412696
260.800000	1156.064556	0.105071
260.900000	1096.415948	-0.383787
261.000000	1613.709207	0.563477
261.100000	1372.733642	-0.470906
261.200000	246.788003	-1.215586
261.300000	1374.891060	-0.070603
261.400000	1479.198949	-0.141741
261.500000	1300.689044	0.904457
261.600000	1978.129515	-0.339163
261.700000	1631.150709	-0.709602
261.800000	815.827716	-0.286935
261.900000	1235.270399	-0.470970
262.000000	1695.657541	0.340003
262.100000	889.546220	-0.691529
262.200000	323.238005	-1.036732
262.300000	1944.197128	0.644688
262.400000	1724.044282	-0.105372
262.500000	1150.201822	-0.353065
262.600000	976.479950	-0.365584
262.700000	1239.321226	-0.192668
262.800000	698.345367	-0.183911
262.900000	2231.101204	0.164730
263.000000	889.134616	0.420662
263.100000	2597.794375	-0.041786
263.200000	1502.567744	0.431582
263.300000	1681.176717	-0.029804
263.400000	679.985846	0.420715
263.500000	1035.559109	-1.509614
263.600000	1900.643081	0.486564
263.700000	1237.393747	-0.287480
263.800000	1935.594131	-0.501146
263.900000	921.111716	0.142043
264.000000	1972.611419	-0.597582
264.100000	654.060969	-0.553744
264.200000	502.187319	-0.538515
264.300000	1411.856776	-0.690761
264.400000	1743.791975	-0.100622
264.500000	761.471754	0.608914
264.600000	2500.332006	-0.272665
264.700000	1409.042064	-0.201657
264.800000	396.250733	-0.433154
264.900000	1750.788888	-0.014641
265.000000	1210.614397	-0.587282
265.100000	749.610981	-0.574191
265.200000	1299.558495	-0.060078
265.300000	1475.134065	0.055908
265.400000	1767.453856	-0.107262
265.500000	1213.227163	-0.124329
265.600000	699.208524	0.642426
265.700000	1409.989289	-0.353660
265.800000	1736.709790	-0.119548
265.900000	1529.005689	0.648328
266.000000	1254.571149	1.119022
266.100000	1768.237053	-0.518020
266.200000	1440.377268	0.435142
266.300000	1735.331876	-0.481408
266.400000	498.792677	-1.489431
266.500000	640.084594	0.811452
266.600000	1831.788364	0.778320
266.700000	2043.624151	-0.135140
266.800000	1675.443865	0.330723
266.900000	1437.043536	0.319810
267.000000	2229.085851	0.023696
267.100000	311.734632	0.160072
267.200000	829.004616	0.102122
267.300000	1274.253224	-0.033731
267.400000	1331.863785	0.258168
267.500000	1078.467749	-0.082144
267.600000	1755.629659	0.066947
267.700000	2048.193694	-0.269625
267.800000	590.725934	-0.123514
267.900000	1562.109789	-0.549745
268.000000	1381.166049	0.759762
268.100000	1409.890005	0.302776
268.200000	1372.978270	0.004702
268.300000	1513.058832	-0.045279
268.400000	1511.389431	0.176526
268.500000	356.281580	0.536465
268.600000	1851.948205	0.270632
268.700000	1683.869211	-0.800992
268.800000	1295.904220	-0.258843
268.900000	619.872547	0.498195
269.000000	1373.503542	0.318298
269.100000	1837.520262	-0.176009
269.200000	1002.169722	0.224996
269.300000	547.909659	-1.233218
269.400000	1335.332833	-0.386920
269.500000	929.154882	0.302000
269.600000	1428.653356	0.488454
269.700000	1505.470051	-0.003049
269.800000	1058.481339	0.817390
269.900000	2401.037779	0.338690
270.000000	1325.047442	-0.618416
270.100000	817.833765	0.582612
270.200000	1243.300539	0.192820
270.300000	1551.257874	0.036242
270.400000	1358.914274	0.276228
270.500000	1586.610275	-0.074773
270.600000	1717.887690	0.477371
270.700000	1265.706446	-0.105657
270.800000	1154.466683	-0.468353
270.900000	1255.846228	-0.281676
271.000000	2084.302427	0.910508
271.100000	1739.267621	0.027247
271.200000	971.155663	0.280687
271.300000	1483.609576	-0.394523
271.400000	965.593472	0.545385
271.500000	1852.461363	-0.089414
271.600000	1347.908059	-0.137492
271.700000	1554.436742	-0.705469
271.800000	981.768686	-0.351874
271.900000	1095.493938	0.334937
272.000000	2794.959336	-0.000201
272.100000	1585.122852	-0.451873
272.200000	1298.785805	0.352175
272.300000	1634.751229	0.179063
272.400000	1659.644881	-0.102827
272.500000	1260.120830	-0.329423
272.600000	1111.135955	0.281627
272.700000	1402.046097	-0.058710
272.800000	1440.472712	0.465162
272.900000	2220.066361	0.026935
273.000000	1233.018849	-0.894291
273.100000	1278.409788	0.693086
273.200000	1705.793197	0.609133
273.300000	1563.377442	-0.359702
273.400000	1245.222796	-0.089265
273.500000	878.882747	0.576576
273.600000	2167.949835	-0.017659
273.700000	624.903958	0.392133
273.800000	858.061765	-0.011565
273.900000	853.317573	-0.157919
274.000000	1680.716593	0.380087
274.100000	2122.293094	-0.175388
274.200000	1032.422543	-0.298340
274.300000	1774.893734	0.057824
274.400000	674.811222	0.260328
274.500000	1424.858416	0.342637
274.600000	1622.887785	-0.317894
274.700000	1459.110069	-0.787687
274.800000	1058.143390	0.140242
274.900000	2182.929561	0.332045
275.000000	1126.263196	-0.466485
275.100000	543.391419	-0.025703
275.200000	1374.903188	0.068316
275.300000	1512.499310	0.258629
275.400000	1618.127603	0.153043
275.500000	1585.155717	-0.698385
275.600000	1360.863842	0.601040
275.700000	1506.928417	-0.227540
275.800000	838.698378	0.418163
275.900000	1718.449118	-0.171907
276.000000	806.321833	-0.570818
276.100000	823.846517	0.245176
276.200000	1560.613336	0.364145
276.300000	918.442507	-0.572010
276.400000	589.678320	0.000850
276.500000	1320.477761	0.253137
276.600000	1395.392135	-0.007489
276.700000	1170.920870	-1.093559
276.800000	313.131208	-0.241990
276.900000	491.807417	0.051870
277.000000	1852.638835	0.079681
277.100000	1044.525448	-0.197133
277.200000	1450.073086	-0.618540
277.300000	722.043351	-0.247868
277.400000	821.199842	0.061167
277.500000	1476.918131	0.271601
277.600000	1352.990589	-0.250161
277.700000	1270.954169	-0.065436
277.800000	1807.316300	0.573692
277.900000	2463.442079	0.098837
278.000000	1204.449444	-0.349767
278.100000	969.942792	-0.428582
278.200000	1311.893134	0.648095
278.300000	1210.161147	0.474356
278.400000	1248.485948	0.022668
278.500000	1258.852845	-0.020735
278.600000	1407.380827	0.077387
278.700000	1378.415379	0.377716
278.800000	1290.872323	0.214491
278.900000	1259.668406	0.049471
279.000000	1410.562815	-0.090931
279.100000	765.793223	-0.731472
279.200000	1201.792943	0.326347
279.300000	1457.831675	-0.522827
279.400000	1240.329737	-0.001621
279.500000	1947.066564	0.430210
279.600000	2122.250662	-0.361231
279.700000	762.585664	-0.119884
279.800000	759.033747	-0.626053
279.900000	1760.022155	0.080595
280.000000	1440.645640	0.073355
280.100000	1266.947394	-0.229183
280.200000	940.898900	-0.294655
280.300000	1440.234600	-0.243488
280.400000	1502.378597	0.375623
280.500000	1284.971119	-0.216269
280.600000	1785.370544	0.235092
280.700000	1279.146489	0.226741
280.800000	1425.921282	0.847943
280.900000	2069.904424	0.053556
281.000000	1179.047826	-0.026433
281.100000	1547.501361	0.472959
281.200000	1636.991276	0.445205
281.300000	1429.411627	0.528672
281.400000	829.845995	-0.060483
281.500000	1100.023947	-0.261281
281.600000	1298.866351	0.415775
281.700000	721.686566	-0.039184
281.800000	1848.760051	0.138943
281.900000	1192.836909	0.492600
282.000000	1829.477633	-0.516466
282.100000	806.766104	-0.173399
282.200000	1392.577995	-0.104442
282.300000	969.217322	0.025031
282.400000	1088.938562	0.015613
282.500000	1935.594652	0.293484
282.600000	1442.778299	-0.314191
282.700000	1122.037022	-0.183999
282.800000	984.302671	0.011776
282.900000	1601.608351	-0.286082
283.000000	1270.931765	0.040467
283.100000	1702.340251	0.437382
283.200000	1407.057194	-0.044365
283.300000	1843.095250	-0.089797
283.400000	1418.255714	-0.365617
283.500000	1265.333732	-0.368791
283.600000	1010.663723	-0.255312
283.700000	1344.110023	0.025091
283.800000	1377.995742	0.448263
283.900000	860.199431	0.348165
284.000000	1117.633643	0.138445
284.100000	619.728992	0.181951
284.200000	1032.238958	0.340368
284.300000	1146.795869	0.101277
284.400000	1546.035735	-0.676300
284.500000	1380.805731	-0.037536
284.600000	639.570595	-1.315760
284.700000	1148.615331	-0.132668
284.800000	574.179997	-0.019613
284.900000	1689.158599	0.003847
285.000000	1515.985047	-0.471840
285.100000	1459.161007	-0.481551
285.200000	1156.779069	0.037860
285.300000	1161.612986	0.005421
285.400000	1034.395178	0.148173
285.500000	1630.358554	0.320637
285.600000	1919.347688	-0.184767
285.700000	1299.573902	-0.222870
285.800000	1127.504269	-0.015344
285.900000	1748.762279	-0.564070
286.000000	867.987076	0.338901
286.100000	1578.217639	0.666169
286.200000	2034.139740	-0.086727
286.300000	1968.053229	0.303138
286.400000	1440.035601	0.451468
286.500000	720.964968	0.108639
286.600000	1279.751501	0.278288
286.700000	904.423515	-0.040249
286.800000	1166.454510	-0.110801
286.900000	1656.456005	0.565492
287.000000	870.524114	0.400616
287.100000	1127.531413	0.546465
287.200000	1158.299196	-0.153997
287.300000	1235.262859	-0.201787
287.400000	1026.524722	-0.228680
287.500000	1716.925954	0.008759
287.600000	656.751185	-0.494814
287.700000	1100.424456	0.232938
287.800000	829.657411	0.098539
287.900000	1686.095585	0.060691
288.000000	1535.813354	-0.599584
288.100000	1771.597287	-0.043109
288.200000	976.604293	0.403591
288.300000	1217.848574	-0.225726
288.400000	1421.495819	0.313580
288.500000	1687.871105	0.240491
288.600000	1607.871646	-0.011706
288.700000	1437.754114	0.075693
288.800000	1568.025260	0.188593
288.900000	1060.438661	0.238999
289.000000	1123.118473	0.253171
289.100000	1515.845133	0.354459
289.200000	1652.383967	0.260818
289.300000	1333.033142	0.139961
289.400000	1045.282516	0.494616
289.500000	1141.260151	0.041859
289.600000	876.200510	0.677462
289.700000	1222.081141	0.147602
289.800000	911.746505	0.501152
289.900000	1314.186541	0.275298
290.000000	803.254887	0.114427
290.100000	1119.145103	-0.060460
290.200000	1164.741359	-0.185643
290.300000	673.461012	-0.122057
290.400000	939.528781	0.230056
290.500000	1232.152595	-0.391613
290.600000	1274.181804	-0.377693
290.700000	904.007493	0.151967
290.800000	1677.835320	0.210506
290.900000	1073.041761	-0.311369
291.000000	1582.816301	-0.136647
291.100000	1587.287372	-0.100586
291.200000	1293.441185	-0.030525
291.300000	1854.692992	0.059436
291.400000	1072.510402	0.207170
291.500000	1522.401938	0.272220
291.600000	1458.402187	0.141510
291.700000	1001.435705	0.132212
291.800000	1452.910470	0.233998
291.900000	1102.158739	-0.012566
292.000000	1427.675864	0.121808
292.100000	1395.441541	0.524517
292.200000	1629.179658	-0.086304
292.300000	945.479792	-0.174835
292.400000	876.712909	0.291036
292.500000	1528.031859	0.080442
292.600000	902.152563	0.116478
292.700000	1625.651920	-0.031458
292.800000	1215.474366	0.576426
292.900000	1631.729794	0.091708
293.000000	511.857769	-0.769643
293.100000	1557.900045	-0.284475
293.200000	1424.102976	-0.209311
293.300000	792.912393	-0.379944
293.400000	1471.894448	0.212383
293.500000	1822.201870	-0.180639
293.600000	1578.143566	-0.123911
293.700000	1479.749393	-0.006362
293.800000	1962.195102	-0.138392
293.900000	1877.769704	-0.033381
294.000000	1699.852336	0.474679
294.100000	1584.347047	-0.066552
294.200000	1619.146139	0.271489
294.300000	1452.732426	-0.099231
294.400000	1072.994857	-0.167691
294.500000	1228.088322	0.167015
294.600000	885.637839	0.260135
294.700000	1360.535123	-0.082859
294.800000	933.635386	0.319552
294.900000	1487.851542	-0.217576
295.000000	1246.698929	0.226334
295.100000	1088.162721	0.365640
295.200000	1323.733084	0.100074
295.300000	1038.110230	-0.283057
295.400000	1551.894234	0.522793
295.500000	647.262457	0.002052
295.600000	847.381348	-0.388710
295.700000	1129.860994	0.111861
295.800000	1343.978238	0.112312
295.900000	1305.435693	-0.367211
296.000000	990.857192	-0.024957
296.100000	1392.697222	-0.224448
296.200000	984.492240	-0.516618
296.300000	1281.125861	-0.104507
296.400000	1458.675095	0.119561
296.500000	1783.999260	0.015679
296.600000	1707.871455	-0.002673
296.700000	1100.331549	-0.030918
296.800000	1486.559107	-0.192009
296.900000	1261.661415	0.438657
297.000000	1330.476152	0.135288
297.100000	1551.298450	0.072918
297.200000	1054.016666	0.279439
297.300000	889.640863	0.188630
297.400000	948.606857	0.098452
297.500000	1433.989480	-0.114943
297.600000	1027.593963	0.009683
297.700000	1038.489214	0.080078
297.800000	616.856639	0.256413
297.900000	1404.655912	0.124185
298.000000	858.439661	0.128907
298.100000	865.488430	-0.288188
298.200000	1252.198588	-0.465219
298.300000	772.619458	-0.265087
298.400000	1098.862937	0.225715
298.500000	790.003896	-0.393657
298.600000	1084.342136	-0.347835
298.700000	723.954691	-0.326512
298.800000	1369.111457	0.090766
298.900000	1166.837395	-0.538132
299.000000	1158.503897	0.006795
299.100000	1572.713447	-0.131936
299.200000	1198.424651	-0.166623
299.300000	1188.914272	0.299770
299.400000	1765.470666	0.235844
299.500000	2024.499176	-0.029971
299.600000	1288.459628	0.205606
299.700000	1198.953001	-0.141039
299.800000	1400.590126	0.201295
299.900000	815.869514	0.424878
300.000000	1480.854969	0.047621
300.100000	1462.812854	0.147160
300.200000	1596.665531	0.343707
300.300000	586.217355	0.103756
300.400000	1186.570248	0.195178
300.500000	1589.288051	0.073647
300.600000	859.935655	0.033256
300.700000	1062.578169	0.187403
300.800000	1430.149155	0.043718
300.900000	1168.448632	-0.104308
301.000000	1106.346398	0.055486
301.100000	743.876370	0.088807
301.200000	1176.073293	-0.200083
301.300000	1466.327117	-0.197356
301.400000	1622.308039	-0.130227
301.500000	1164.349639	-0.203606
301.600000	1643.432564	-0.146505
301.700000	1146.331858	0.419101
301.800000	1586.459172	0.006191
301.900000	1562.948167	-0.267163
302.000000	1033.063848	-0.124596
302.100000	1263.682888	-0.020680
302.200000	1314.855161	-0.004868
302.300000	1279.646469	0.099482
302.400000	1468.899510	0.289096
302.500000	1234.282511	0.084743
302.600000	1252.700761	0.205314
302.700000	1294.820903	0.204338
302.800000	985.523283	0.412916
302.900000	1120.094369	0.314852
303.000000	1334.792791	0.198383
303.100000	1311.348947	0.039784
303.200000	1097.409960	0.391633
303.300000	625.331102	-0.367950
303.400000	1054.236787	0.126975
303.500000	906.400745	0.218718
303.600000	1064.608898	0.299813
303.700000	934.647073	0.015388
303.800000	1457.964584	-0.096518
303.900000	1235.433464	-0.131314
304.000000	1221.983843	-0.048440
304.100000	1274.232892	-0.083980
304.200000	1087.874607	-0.288339
304.300000	1444.055290	-0.052897
304.400000	1059.874675	-0.148934
304.500000	1191.763415	-0.154597
304.600000	1472.840180	0.117446
304.700000	888.639368	0.011767
304.800000	1707.109785	-0.144785
304.900000	1526.240081	-0.178836
305.000000	1174.048955	-0.137395
305.100000	1518.970672	0.027043
305.200000	1574.737005	-0.160487
305.300000	1172.938630	0.180151
305.400000	1287.570641	0.171270
305.500000	1541.872070	-0.054266
305.600000	1122.285966	-0.000515
305.700000	1183.581307	0.074328
305.800000	983.316081	-0.008390
305.900000	631.740767	0.712629
306.000000	1201.000138	0.170667
306.100000	1338.122857	0.187657
306.200000	807.888888	0.191944
306.300000	810.175152	-0.465975
306.400000	782.226332	-0.452011
306.500000	974.077337	0.134179
306.600000	1078.564150	-0.083897
306.700000	1376.462996	0.101983
306.800000	1231.528455	-0.079766
306.900000	1059.499318	0.161635
307.000000	1133.193546	-0.070657
307.100000	1232.885495	0.106419
307.200000	1224.067916	0.011478
307.300000	1558.977545	-0.003292
307.400000	1272.575340	-0.108145
307.500000	1449.152139	0.164115
307.600000	1206.923621	-0.007849
307.700000	1426.389469	-0.033243
307.800000	1363.081373	0.184199
307.900000	1556.240131	-0.037996
308.000000	1404.029695	0.309661
308.100000	1524.636714	0.124179
308.200000	1389.258518	0.087265
308.300000	1304.929685	0.558937
308.400000	1435.175355	0.434062
308.500000	1539.688070	0.056722
308.600000	1006.543864	0.007303
308.700000	1382.937572	0.331983
308.800000	779.073318	-0.191023
308.900000	719.842667	0.380504
309.000000	1345.821875	0.136050
309.100000	1221.678403	-0.053243
309.200000	1214.389498	0.146728
309.300000	1106.703799	0.079662
309.400000	1047.880988	-0.399591
309.500000	1109.639939	-0.031733
309.600000	1232.933181	0.077766
309.700000	1302.344509	0.035142
309.800000	1037.650259	-0.032207
309.900000	1169.834414	0.214216
310.000000	1067.370707	0.105669
310.100000	1292.627498	0.306342
310.200000	1217.939762	-0.083850
310.300000	1018.733945	0.182985
310.400000	1388.253126	0.191400
310.500000	1271.514115	0.232393
310.600000	1314.424415	0.067891
310.700000	1471.146440	0.088594
310.800000	1317.468472	0.242879
310.900000	1182.216331	0.180101
311.000000	933.930798	0.213563
311.100000	1496.015689	0.094832
311.200000	1032.311839	0.166923
311.300000	1164.705495	0.518394
311.400000	1397.619736	0.411903
311.500000	1311.094792	0.044175
311.600000	921.972531	-0.283189
311.700000	1431.921943	0.063562
311.800000	1072.642134	-0.168070
311.900000	995.993166	0.040560
312.000000	1224.258008	0.097622
312.100000	1341.407974	-0.080555
312.200000	1317.684528	0.179966
312.300000	1564.198176	-0.096541
312.400000	1281.650705	-0.480294
312.500000	1410.846919	-0.043732
312.600000	1260.661105	0.094186
312.700000	1512.258921	-0.050879
312.800000	1361.097953	-0.064334
312.900000	1531.476523	-0.162432
313.000000	1470.805359	0.012688
313.100000	1487.013057	-0.025140
313.200000	1133.730531	-0.246965
313.300000	1347.342444	-0.070207
313.400000	1427.071316	0.292611
313.500000	1159.156724	-0.001497
313.600000	1276.821171	-0.163291
313.700000	1125.322894	0.113455
313.800000	1310.975420	0.318949
313.900000	1231.277620	0.007070
314.000000	1591.408749	0.080449
314.100000	1245.475117	0.057629
314.200000	1035.466547	-0.380847
314.300000	1316.584194	0.279905
314.400000	1265.281216	0.299608
314.500000	1297.249953	-0.214207
314.600000	1133.978240	-0.048285
314.700000	1385.676639	-0.048705
314.800000	1246.812268	-0.205280
314.900000	1200.448310	0.188408
315.000000	1076.544554	0.028879
315.100000	1407.319873	0.037058
315.200000	1378.029337	0.080418
315.300000	1409.461545	-0.155025
315.400000	1307.121961	-0.419906
315.500000	1575.184807	-0.046422
315.600000	1279.461462	0.213909
315.700000	1402.518528	-0.198552
315.800000	1273.919432	0.124922
315.900000	1513.925600	0.248817
316.000000	1276.279824	0.133384
316.100000	1497.464833	-0.251899
316.200000	1020.590933	-0.227002
316.300000	1048.038257	0.127317
316.400000	1160.905725	0.025230
316.500000	1206.886864	0.098894
316.600000	982.514697	-0.084859
316.700000	1200.258977	-0.034084
316.800000	853.200070	0.084667
316.900000	1305.415325	-0.147482
317.000000	1253.381772	-0.052578
317.100000	891.123884	-0.120805
317.200000	911.855847	-0.041602
317.300000	970.706560	0.063569
317.400000	1024.852022	0.078332
317.500000	1196.166035	-0.366992
317.600000	849.833614	0.095759
317.700000	1407.997503	-0.054272
317.800000	1027.685036	-0.151844
317.900000	746.540461	-0.429996
318.000000	1021.596383	0.103646
318.100000	1523.346673	-0.068692
318.200000	1354.183761	0.270640
318.300000	1316.269085	-0.160185
318.400000	1450.668793	-0.213924
318.500000	906.622125	0.193747
318.600000	1185.000833	0.173558
318.700000	975.908859	0.055365
318.800000	1411.449328	0.304284
318.900000	1214.737921	0.147071
319.000000	1334.214311	0.036692
319.100000	1232.989783	-0.022679
319.200000	760.682853	-0.301112
319.300000	1238.051771	0.045872
319.400000	1249.939113	0.187600
319.500000	1143.531294	-0.111457
319.600000	1149.623249	-0.065819
319.700000	1057.275109	0.347347
319.800000	1097.861235	-0.020662
319.900000	1387.639099	-0.001450
320.000000	1038.721862	-0.130958
320.100000	983.648607	0.028471
320.200000	979.740498	0.109758
320.300000	1122.392615	0.134404
320.400000	941.505021	0.187997
320.500000	1096.723307	-0.455135
320.600000	953.171828	-0.052094
320.700000	1335.091743	0.026957
320.800000	1149.319091	-0.280094
320.900000	1038.751223	-0.015111
321.000000	1044.205711	0.351409
321.100000	1645.368452	0.068308
321.200000	1208.196073	0.179593
321.300000	1295.048943	-0.044895
321.400000	1348.875570	-0.032422
321.500000	1099.699444	0.225976
321.600000	1319.961383	0.287192
321.700000	917.005179	-0.099598
321.800000	1151.729160	0.148666
321.900000	1302.749212	0.246991
322.000000	1414.841364	-0.013270
322.100000	1254.682761	0.056518
322.200000	1225.182211	0.098770
322.300000	1330.956413	0.214396
322.400000	1351.996034	0.331999
322.500000	1551.940319	0.007417
322.600000	1023.590086	0.171207
322.700000	1245.051761	0.012794
322.800000	1315.971296	0.177964
322.900000	1176.391628	0.108742
323.000000	1126.284917	0.204251
323.100000	953.209613	0.146204
323.200000	1165.863323	0.121215
323.300000	1218.967770	0.121360
323.400000	1316.208257	0.093077
323.500000	1040.605669	0.059962
323.600000	1241.387437	-0.000901
323.700000	1381.403031	0.008536
323.800000	1368.609749	-0.181636
323.900000	1085.198296	-0.162719
324.000000	1327.083677	0.133401
324.100000	1347.498964	0.221703
324.200000	1113.351984	0.126310
324.300000	1377.906728	-0.016154
324.400000	1242.249986	-0.241411
324.500000	1063.985362	0.203699
324.600000	1323.330162	0.120513
324.700000	1123.047589	0.194742
324.800000	1120.402275	0.053384
324.900000	1379.183480	0.096864
325.000000	1292.410346	-0.045145
325.100000	1131.702479	0.063396
325.200000	1198.252503	-0.053649
325.300000	1179.881006	0.140716
325.400000	1274.848258	0.313497
325.500000	1377.755945	0.194930
325.600000	1089.500001	-0.125483
325.700000	1352.482546	-0.054558
325.800000	1086.605990	0.081853
325.900000	1249.546919	-0.123726
326.000000	1105.523159	0.264404
326.100000	1180.923573	-0.105201
326.200000	1127.414324	0.035210
326.300000	1258.439105	0.001487
326.400000	1428.334580	-0.009818
326.500000	1070.680442	-0.198748
326.600000	1466.290840	0.097062
326.700000	1138.385473	0.064256
326.800000	1328.804424	-0.068455
326.900000	1121.806693	-0.000144
327.000000	1311.706948	-0.034275
327.100000	1252.628317	-0.099833
327.200000	1271.078259	0.122787
327.300000	1202.670477	0.023282
327.400000	1094.522262	-0.231849
327.500000	1188.946123	0.011004
327.600000	1242.760577	0.075831
327.700000	1104.480246	-0.081090
327.800000	1272.049243	-0.120059
327.900000	1249.656964	0.162231
328.000000	1394.009495	0.083493
328.100000	1400.356165	-0.043661
328.200000	1371.558993	-0.043986
328.300000	1117.468842	-0.099547
328.400000	1130.436072	0.118874
328.500000	1332.295372	0.310784
328.600000	1250.600406	0.072612
328.700000	1262.113399	0.013562
328.800000	1177.483047	-0.031900
328.900000	1058.796890	0.108430
329.000000	1354.970067	0.036134
329.100000	1159.634000	0.143142
329.200000	1099.039536	-0.013612
329.300000	1195.871091	0.044275
329.400000	1311.004391	-0.037539
329.500000	928.673192	-0.115698
329.600000	1278.230989	0.078285
329.700000	1489.953591	0.141080
329.800000	1288.508767	0.005956
329.900000	1153.393145	0.054187
330.000000	1060.982095	-0.123523
330.100000	1195.730133	0.150993
330.200000	1199.975599	0.001610
330.300000	1275.557438	0.094049
330.400000	1091.222228	-0.226700
330.500000	1275.241373	0.106241
330.600000	1116.903497	0.148065
330.700000	1137.826825	-0.143489
330.800000	1205.570990	0.112997
330.900000	1295.998238	-0.018878
331.000000	1243.017135	0.124966
331.100000	1383.301501	-0.115636
331.200000	1117.624926	-0.075268
331.300000	1088.640921	-0.007860
331.400000	1236.958599	0.118713
331.500000	1161.835755	-0.020392
331.600000	1353.618767	-0.039455
331.700000	970.276378	0.061285
331.800000	1111.658137	0.096487
331.900000	1145.613666	0.059985
332.000000	1195.447327	0.073909
332.100000	976.825396	0.097320
332.200000	1163.396238	-0.126324
332.300000	1196.135642	0.172407
332.400000	1230.857764	0.038744
332.500000	1071.497925	-0.132782
332.600000	1330.165070	0.000119
332.700000	1190.156375	0.125684
332.800000	1219.767959	-0.048246
332.900000	1196.383323	-0.039094
333.000000	1231.836041	-0.025637
333.100000	1147.793624	0.181102
333.200000	1132.594225	-0.040233
333.300000	1192.696002	-0.046431
333.400000	1070.244769	-0.169352
333.500000	1377.530851	0.179385
333.600000	1234.828195	0.025910
333.700000	1171.312024	-0.178837
333.800000	1105.928742	-0.026273
333.900000	1170.254348	0.087540
334.000000	1319.622969	0.053999
334.100000	1470.740257	-0.095552
334.200000	1144.144616	0.059961
334.300000	1019.495354	-0.084880
334.400000	1145.623251	0.079537
334.500000	1170.175502	0.132489
334.600000	1287.443951	-0.140095
334.700000	1275.718015	-0.041478
334.800000	1066.878701	0.059893
334.900000	1339.065283	0.036810
335.000000	1088.756193	-0.124497
335.100000	1035.824722	0.131792
335.200000	1238.826803	0.034721
335.300000	1400.211382	0.100599
335.400000	1040.173039	0.035818
335.500000	1138.085513	-0.001810
335.600000	1199.456924	0.150203
335.700000	1289.184076	0.113177
335.800000	1113.212635	0.037577
335.900000	1239.449043	-0.039222
336.000000	1044.606373	0.135074
336.100000	1188.161708	0.056467
336.200000	1172.874534	0.195547
336.300000	1211.608082	-0.082192
336.400000	1174.859274	0.035627
336.500000	1163.816887	0.134157
336.600000	1369.193592	-0.023773
336.700000	1111.719820	-0.067507
336.800000	1075.502213	0.071712
336.900000	1190.283951	0.174480
337.000000	1305.012736	0.041379
337.100000	1063.480063	-0.014626
337.200000	1180.654346	0.011030
337.300000	1163.587426	-0.017861
337.400000	1195.139442	0.029536
337.500000	1159.759723	0.026883
337.600000	1217.900269	-0.064863
337.700000	1196.064409	-0.019600
337.800000	1163.768077	-0.050775
337.900000	1341.522303	0.098388
338.000000	1162.894910	-0.200075
338.100000	1194.439033	0.084193
338.200000	1180.098748	-0.104430
338.300000	1255.903568	0.072246
338.400000	1034.782237	-0.044665
338.500000	1268.822586	-0.058229
338.600000	1159.256206	0.118776
338.700000	1387.842531	-0.013208
338.800000	991.941210	0.071671
338.900000	1111.998682	0.055572
339.000000	1097.022585	0.085760
339.100000	1257.130924	-0.100411
339.200000	1083.241664	0.083205
339.300000	1173.011276	0.014807
339.400000	1122.445095	-0.004621
339.500000	1305.476613	0.123956
339.600000	1107.741235	0.015459
339.700000	1111.349651	-0.049840
339.800000	1186.487575	0.109840
339.900000	1179.834354	0.151086
340.000000	1246.781030	0.044123
340.100000	1165.353917	0.055432
340.200000	1136.232657	0.027555
340.300000	1192.052338	0.034990
340.400000	1124.465053	0.003597
340.500000	1149.605551	0.109459
340.600000	1207.812782	0.072606
340.700000	1370.677434	-0.000581
340.800000	1190.740539	-0.022646
340.900000	1261.409947	-0.029831
341.000000	1205.168403	0.077760
341.100000	1283.083653	0.014596
341.200000	1251.440875	0.079533
341.300000	1254.792029	-0.032027
341.400000	1209.556153	0.038249
341.500000	1270.712600	0.074743
341.600000	1319.318900	0.021875
341.700000	1319.392297	0.061661
341.800000	1147.605409	0.038495
341.900000	1176.786233	-0.065285
342.000000	1342.244536	0.039226
342.100000	1166.726859	0.025242
342.200000	1165.842039	0.095902
342.300000	1102.267214	0.007989
342.400000	1163.156996	-0.070270
342.500000	1201.834612	0.054313
342.600000	1166.660026	0.091503
342.700000	1071.273890	0.142572
342.800000	1190.886098	0.010090
342.900000	1318.918592	0.069003
343.000000	1083.514125	-0.001912
343.100000	1221.512715	0.109410
343.200000	1082.158004	-0.005638
343.300000	1177.942937	0.014757
343.400000	1057.059331	0.040815
343.500000	1190.900519	0.027616
343.600000	1268.608444	0.085064
343.700000	1372.755953	-0.067163
343.800000	1183.981694	0.047323
343.900000	1311.624207	0.059352
344.000000	1157.927267	0.072257
344.100000	1277.079282	-0.129253
344.200000	1210.311118	0.011711
344.300000	1199.061621	-0.038380
344.400000	1177.378485	0.215006
344.500000	1361.667297	-0.045313
344.600000	1274.699318	0.029457
344.700000	1134.221898	-0.006683
344.800000	1275.657705	0.089893
344.900000	1165.364740	0.040730
345.000000	1393.368734	-0.044751
345.100000	1232.391475	-0.015074
345.200000	1277.643649	0.081490
345.300000	1235.387236	0.032756
345.400000	1205.861735	-0.002960
345.500000	1248.530676	0.016497
345.600000	1122.424722	0.014888
345.700000	1107.350365	-0.062518
345.800000	1215.936899	-0.039907
345.900000	1215.327309	-0.000798
346.000000	1106.969671	0.072954
346.100000	1253.225901	-0.011919
346.200000	1219.902044	-0.083534
346.300000	1143.831655	-0.014439
346.400000	1163.746298	-0.099291
346.500000	1115.143009	0.045215
346.600000	1231.313724	0.008592
346.700000	1335.972688	-0.181795
346.800000	1126.287596	0.070782
346.900000	1166.375562	-0.028557
347.000000	1267.703693	0.012354
347.100000	1129.287844	0.062401
347.200000	1295.618201	-0.010461
347.300000	1292.741579	0.037204
347.400000	1157.873721	0.147181
347.500000	1210.459552	0.014332
347.600000	1252.882111	-0.011761
347.700000	1230.149288	0.115398
347.800000	1234.100254	0.037483
347.900000	1168.055008	-0.037229
348.000000	1166.681024	-0.022058
348.100000	1186.129256	0.051145
348.200000	1109.251902	0.049273
348.300000	1303.347524	0.001343
348.400000	1269.372973	-0.009546
348.500000	1185.107197	0.005677
348.600000	1141.496633	0.062854
348.700000	1182.625111	-0.072139
348.800000	1181.503025	0.025957
348.900000	1228.179386	-0.002708
349.000000	1055.501237	0.102641
349.100000	1171.928433	-0.032908
349.200000	1182.165958	0.049991
349.300000	1110.405107	-0.093164
349.400000	1202.044228	0.011121
349.500000	1199.108601	-0.037091
349.600000	1213.458008	0.024559
349.700000	1103.455561	-0.052130
349.800000	1156.455328	-0.050998
349.900000	1139.181912	0.096894
350.000000	1201.185333	-0.026295
350.100000	1080.319203	-0.034181
350.200000	1297.758665	0.052312
350.300000	1088.907001	0.029930
350.400000	1073.313227	0.100618
350.500000	1157.988564	0.027474
350.600000	1126.256092	-0.041286
350.700000	1183.491940	0.122022
350.800000	1157.349481	-0.071214
350.900000	1136.254483	-0.051806
351.000000	1197.712650	0.082625
351.100000	1209.184592	0.026387
351.200000	1127.495640	-0.006183
351.300000	1082.813677	0.106673
351.400000	1143.299453	0.046459
351.500000	1216.154224	0.077884
351.600000	1235.892578	0.107868
351.700000	1207.144895	-0.076614
351.800000	1180.494562	0.000454
351.900000	1110.569405	0.083000
352.000000	1118.211536	0.019731
352.100000	1262.376794	0.090059
352.200000	1162.738205	0.065145
352.300000	1206.477606	-0.057803
352.400000	1222.878829	0.033466
352.500000	1179.111985	0.055887
352.600000	1197.831814	-0.031420
352.700000	1222.294613	0.055194
352.800000	1284.435705	0.046034
352.900000	1229.426600	0.082372
353.000000	1158.414078	0.047320
353.100000	1212.234904	0.030833
353.200000	1152.742489	-0.030001
353.300000	1183.771215	-0.067399
353.400000	1107.141145	-0.041426
353.500000	1149.468648	0.045193
353.600000	1208.531881	0.060892
353.700000	1183.717610	0.063862
353.800000	1159.713632	0.011208
353.900000	1252.742678	-0.036443
354.000000	1250.272850	0.048010
354.100000	1240.219957	0.024209
354.200000	1189.534152	-0.004017
354.300000	1110.790477	0.064299
354.400000	1223.326795	0.106910
354.500000	1219.732777	0.047330
354.600000	1309.280577	0.011415
354.700000	1187.464152	0.032384
354.800000	1185.405987	0.005120
354.900000	1236.114114	0.120897
355.000000	1198.496491	0.026613
355.100000	1162.970535	0.061780
355.200000	1292.588901	0.005442
355.300000	1199.427847	0.073667
355.400000	1261.549951	0.031436
355.500000	1249.615244	0.101788
355.600000	1149.134173	-0.001090
355.700000	1164.372306	0.033080
355.800000	1233.489836	0.088865
355.900000	1196.788799	0.068263
356.000000	1208.157643	0.058185
356.100000	1209.506228	0.052600
356.200000	1252.737701	-0.013203
356.300000	1226.925269	0.009522
356.400000	1105.092918	-0.027767
356.500000	1308.001154	0.004672
356.600000	1193.508111	-0.004241
356.700000	1209.329080	0.031736
356.800000	1241.838848	0.012951
356.900000	1198.818782	0.044681
357.000000	1209.393438	-0.010007
357.100000	1208.862676	-0.027144
357.200000	1125.536496	0.012010
357.300000	1075.696522	-0.007121
357.400000	1241.603971	0.057007
357.500000	1254.859930	0.041390
357.600000	1166.441570	-0.041808
357.700000	1208.868238	-0.044989
357.800000	1221.142569	-0.023910
357.900000	1185.479936	0.027800
358.000000	1166.006560	0.051300
358.100000	1193.647863	0.041723
358.200000	1175.057226	0.018815
358.300000	1207.564742	-0.001416
358.400000	1255.814417	-0.046603
358.500000	1197.256517	0.055407
358.600000	1182.754337	0.001133
358.700000	1169.135902	0.002466
358.800000	1174.151897	0.020615
358.900000	1163.183924	-0.025455
359.000000	1133.784481	0.006035
359.100000	1218.945393	-0.003020
359.200000	1230.502754	0.023983
359.300000	1158.442446	-0.012795
359.400000	1190.608367	0.005304
359.500000	1158.199047	0.000199
359.600000	1229.262139	-0.058990
359.700000	1176.275800	0.058072
359.800000	1168.313546	-0.051101
359.900000	1235.252799	0.003596
360.000000	1204.107475	-0.089061
360.100000	1177.388247	0.008369
360.200000	1217.017311	-0.060471
360.300000	1236.043323	0.039571
360.400000	1217.423139	0.003502
360.500000	1275.525235	0.010920
360.600000	1170.460324	0.065921
360.700000	1160.953735	-0.005549
360.800000	1175.661844	-0.052181
360.900000	1176.670238	-0.020860
361.000000	1143.436280	0.004869
361.100000	1211.000905	0.060850
361.200000	1161.003557	-0.004672
361.300000	1218.023555	0.006417
361.400000	1142.115974	0.014994
361.500000	1223.534458	0.011923
361.600000	1218.331304	0.012734
361.700000	1174.017733	0.054293
361.800000	1224.254761	0.057123
361.900000	1207.653730	0.080987
362.000000	1147.252090	0.007884
362.100000	1186.441040	-0.020308
362.200000	1173.757644	0.051879
362.300000	1139.530663	-0.000254
362.400000	1164.948893	0.059253
362.500000	1244.491548	0.027738
362.600000	1136.846894	-0.046854
362.700000	1165.590751	0.063894
362.800000	1189.963156	0.012996
362.900000	1148.472127	0.023705
363.000000	1237.705797	0.003471
363.100000	1252.625945	0.094456
363.200000	1138.033957	0.043948
363.300000	1155.318373	0.025364
363.400000	1152.980626	0.040461
363.500000	1238.889681	0.034553
363.600000	1218.305103	0.048569
363.700000	1195.928023	-0.025121
363.800000	1172.495922	-0.026655
363.900000	1183.172936	-0.023129
364.000000	1172.365444	0.074636
364.100000	1200.909442	-0.035726
364.200000	1251.943676	0.003021
364.300000	1180.091647	0.020227
364.400000	1237.649393	-0.031133
364.500000	1147.539074	0.086389
364.600000	1177.673347	-0.002505
364.700000	1201.073516	0.037902
364.800000	1168.945475	0.065387
364.900000	1219.675343	0.043011
365.000000	1151.355656	-0.030154
365.100000	1126.347257	0.053140
365.200000	1206.509412	-0.003991
365.300000	1229.505405	-0.023685
365.400000	1148.707417	0.045226
365.500000	1188.994612	-0.024838
365.600000	1197.268004	0.023448
365.700000	1264.149790	0.078619
365.800000	1188.297751	-0.001564
365.900000	1190.793556	-0.016676
366.000000	1167.860242	0.023269
366.100000	1189.237252	0.063311
366.200000	1119.632987	0.010260
366.300000	1163.349006	0.001029
366.400000	1167.419021	-0.011995
366.500000	1176.674385	-0.021258
366.600000	1219.244567	0.004940
366.700000	1234.829644	-0.047870
366.800000	1201.767798	0.013700
366.900000	1277.072454	0.046563
367.000000	1219.245287	0.004574
367.100000	1195.068173	-0.046882
367.200000	1221.778204	0.035153
367.300000	1192.015095	0.013317
367.400000	1255.753161	0.004778
367.500000	1265.925084	0.019556
367.600000	1163.168104	0.014570
367.700000	1172.129242	0.022790
367.800000	1256.249325	0.025445
367.900000	1246.421463	0.064900
368.000000	1175.300986	-0.027442
368.100000	1262.982846	0.005738
368.200000	1180.582481	0.036318
368.300000	1194.937400	0.007124
368.400000	1114.571800	0.070005
368.500000	1154.892305	0.018317
368.600000	1184.407826	0.046586
368.700000	1229.934758	0.071817
368.800000	1190.635316	0.020226
368.900000	1107.004441	-0.037191
369.000000	1206.505548	0.085661
369.100000	1188.083201	0.025145
369.200000	1207.698153	-0.001403
369.300000	1162.490870	0.004702
369.400000	1158.610366	-0.027424
369.500000	1203.634826	0.063412
369.600000	1216.282143	0.023183
369.700000	1205.894114	0.011873
369.800000	1195.877572	0.006724
369.900000	1183.251061	0.042962
370.000000	1206.179477	0.026734
370.100000	1199.693106	0.034002
370.200000	1143.600819	0.062212
370.300000	1220.987732	-0.000716
370.400000	1234.844617	0.012989
370.500000	1213.284748	-0.008779
370.600000	1161.113610	0.004275
370.700000	1204.917525	0.017386
370.800000	1197.161526	0.044992
370.900000	1203.193221	0.022832
371.000000	1170.651715	-0.004618
371.100000	1242.796657	0.039312
371.200000	1241.181952	0.018074
371.300000	1194.030632	0.015549
371.400000	1124.095987	-0.008873
371.500000	1116.084597	0.000924
371.600000	1192.294033	0.043803
371.700000	1232.108355	0.009028
371.800000	1159.191629	-0.011699
371.900000	1132.770873	-0.012803
372.000000	1215.091253	0.035401
372.100000	1169.755885	-0.015439
372.200000	1220.650557	0.017749
372.300000	1141.381115	-0.004582
372.400000	1159.106283	0.026275
372.500000	1234.905372	0.041599
372.600000	1230.197083	0.017215
372.700000	1195.452788	0.002464
372.800000	1181.881499	-0.024256
372.900000	1206.408622	0.021717
373.000000	1174.058768	-0.013722
373.100000	1219.431778	-0.010828
373.200000	1220.136421	0.021611
373.300000	1233.219656	0.035534
373.400000	1284.106802	0.047932
373.500000	1241.719419	0.005277
373.600000	1190.488306	-0.001653
373.700000	1217.593283	-0.023765
373.800000	1189.644694	0.055034
373.900000	1186.920510	0.017821
374.000000	1219.787651	0.027186
374.100000	1215.600337	0.018963
374.200000	1265.384395	-0.009680
374.300000	1210.152388	-0.002004
374.400000	1169.983211	0.005398
374.500000	1195.021669	0.021678
374.600000	1231.253915	0.023885
374.700000	1242.759393	0.016338
374.800000	1264.739747	-0.027566
374.900000	1163.158772	-9.036204E-5
375.000000	1209.774616	0.024656
375.100000	1233.913804	0.022212
375.200000	1140.422352	0.001551
375.300000	1182.194300	-0.020335
375.400000	1177.117800	0.038962
375.500000	1168.805116	0.049144
375.600000	1262.527551	0.000463
375.700000	1220.285430	0.001457
375.800000	1165.445156	0.012855
375.900000	1203.237292	0.010053
376.000000	1193.506864	0.045375
376.100000	1212.314472	0.012831
376.200000	1160.628682	0.001888
376.300000	1181.351552	0.054183
376.400000	1210.676026	0.072199
376.500000	1184.811483	0.007836
376.600000	1159.106206	0.012243
376.700000	1183.520097	-0.037687
376.800000	1173.641203	0.016242
376.900000	1184.630868	0.017901
377.000000	1195.178080	-0.008405
377.100000	1171.313137	0.000201
377.200000	1230.475268	0.015065
377.300000	1200.357631	-0.006477
377.400000	1183.566852	0.017622
377.500000	1154.303270	0.004730
377.600000	1170.669389	0.014403
377.700000	1188.262953	0.058818
377.800000	1218.278460	-0.019836
377.900000	1169.571872	-0.001302
378.000000	1180.191471	-0.008782
378.100000	1196.814372	-0.013989
378.200000	1171.978980	-0.027265
378.300000	1184.116567	-0.034393
378.400000	1188.385972	-0.016470
378.500000	1212.450929	-0.009175
378.600000	1218.789458	0.019299
378.700000	1184.166522	-0.022847
378.800000	1158.591996	0.011090
378.900000	1168.235773	0.024805
379.000000	1218.458050	0.017871
379.100000	1161.848337	0.010992
379.200000	1167.379550	-0.028063
379.300000	1144.599249	0.011905
379.400000	1161.565727	0.021460
379.500000	1204.247548	-0.011212
379.600000	1165.785536	-0.029998
379.700000	1158.907903	-0.017380
379.800000	1193.940932	-0.004846
379.900000	1178.763470	0.048978
380.000000	1189.113301	0.006053
380.100000	1230.884069	0.014168
380.200000	1195.879630	0.023770
380.300000	1168.666038	-0.000406
380.400000	1170.376495	8.910880E-5
380.500000	1177.584749	0.026531
380.600000	1189.929937	-0.038676
380.700000	1217.317167	0.012256
380.800000	1208.712548	0.018164
380.900000	1180.162754	-0.031220
381.000000	1212.416944	0.037786
381.100000	1228.776906	0.019426
381.200000	1182.215226	-0.009013
381.300000	1216.643216	0.028020
381.400000	1217.726625	0.020288
381.500000	1199.540576	0.054510
381.600000	1231.397669	0.034498
381.700000	1177.159324	0.015725
381.800000	1168.728307	0.019721
381.900000	1194.937439	0.037158
382.000000	1204.111153	0.031308
382.100000	1183.775795	-0.010766
382.200000	1200.642334	0.011622
382.300000	1160.591454	0.004377
382.400000	1206.581493	0.032736
382.500000	1188.782070	0.019034
382.600000	1171.070230	0.002026
382.700000	1171.991024	0.026664
382.800000	1177.409425	-0.000416
382.900000	1197.192509	0.014631
383.000000	1160.293819	0.015745
383.100000	1180.475341	0.040146
383.200000	1189.457593	0.020939
383.300000	1193.912234	0.024393
383.400000	1182.045029	-0.001573
383.500000	1177.125355	0.002946
383.600000	1209.081987	0.025051
383.700000	1207.728981	0.026198
383.800000	1213.457199	0.025923
383.900000	1173.806569	0.010683
384.000000	1227.517468	0.035928
384.100000	1205.066920	0.029660
384.200000	1178.484505	0.017211
384.300000	1201.442793	0.024970
384.400000	1202.380423	0.049453
384.500000	1192.634265	0.024751
384.600000	1186.902625	0.002168
384.700000	1161.212256	0.033376
384.800000	1180.806679	0.008926
384.900000	1221.494040	0.058400
385.000000	1203.113307	0.014654
385.100000	1191.489435	-0.007870
385.200000	1201.453598	0.017946
385.300000	1177.726868	0.018247
385.400000	1183.213478	0.029543
385.500000	1220.694774	0.012131
385.600000	1144.975677	0.005842
385.700000	1189.241631	-0.011722
385.800000	1213.712838	-0.005446
385.900000	1184.192513	-0.015769
386.000000	1186.236625	0.003783
386.100000	1221.591679	0.015716
386.200000	1208.324135	-0.006016
386.300000	1215.986228	-0.005354
386.400000	1205.621528	-0.016542
386.500000	1199.952062	0.003210
386.600000	1227.718670	0.007226
386.700000	1216.093784	0.016116
386.800000	1191.066221	-0.003197
386.900000	1188.413903	-0.013712
387.000000	1201.032969	0.032217
387.100000	1198.962181	0.004993
387.200000	1200.099999	-0.006042
387.300000	1200.973617	0.015028
387.400000	1220.372671	0.017171
387.500000	1227.072723	0.038617
387.600000	1208.276411	0.002297
387.700000	1195.631661	0.016860
387.800000	1191.333658	0.018331
387.900000	1208.599273	0.017180
388.000000	1205.679656	0.018284
388.100000	1189.044912	0.032515
388.200000	1195.818027	0.001750
388.300000	1199.312596	0.008932
388.400000	1200.901388	-0.002983
388.500000	1189.499039	-0.021533
388.600000	1190.439092	0.012086
388.700000	1213.424158	-0.004327
388.800000	1222.896313	0.009153
388.900000	1205.378511	0.003804
389.000000	1202.085119	0.010969
389.100000	1212.556526	0.021397
389.200000	1213.948274	0.012113
389.300000	1213.544522	0.025962
389.400000	1201.050035	-0.006547
389.500000	1183.770632	-0.000121
389.600000	1203.534546	-0.002884
389.700000	1202.932396	0.023666
389.800000	1189.877847	-0.007617
389.900000	1205.813983	0.004836
390.000000	1202.733229	0.012858
390.100000	1187.479035	0.009071
390.200000	1191.177811	0.018783
390.300000	1200.840074	0.003819
390.400000	1181.643907	0.020324
390.500000	1218.892594	0.024295
390.600000	1182.784837	0.026912
390.700000	1159.939283	0.013614
390.800000	1176.700986	-0.000416
390.900000	1164.690694	0.017607
391.000000	1177.402330	-0.004585
391.100000	1189.408992	0.003136
391.200000	1178.240788	0.003093
391.300000	1174.536116	-0.001354
391.400000	1188.999706	0.023464
391.500000	1183.738586	0.003718
391.600000	1202.077688	0.001734
391.700000	1193.376334	-0.004523
391.800000	1189.193881	0.016961
391.900000	1183.483275	0.008445
392.000000	1193.972829	0.023625
392.100000	1194.560021	0.005629
392.200000	1203.023730	0.002284
392.300000	1193.441240	0.004466
392.400000	1184.884873	-0.016438
392.500000	1194.446903	0.014581
392.600000	1185.759556	0.002458
392.700000	1193.953089	0.014279
392.800000	1200.998674	0.020446
392.900000	1216.903455	0.001570
393.000000	1207.151975	0.009545
393.100000	1210.135699	0.022674
393.200000	1166.659130	0.013199
393.300000	1198.093025	0.000637
393.400000	1170.245675	0.011462
393.500000	1172.097927	0.007286
393.600000	1206.916364	0.016516
393.700000	1197.686763	0.000540
393.800000	1191.079395	-0.010499
393.900000	1191.686574	-0.016490
394.000000	1202.313356	0.006452
394.100000	1198.486211	0.008554
394.200000	1221.043097	-0.002949
394.300000	1211.725470	0.012746
394.400000	1204.814832	0.013869
394.500000	1202.754249	0.015505
394.600000	1199.847783	0.015586
394.700000	1207.111818	0.009795
394.800000	1194.802204	0.004532
394.900000	1206.611154	0.017060
395.000000	1198.851740	0.014047
395.100000	1206.255914	0.018271
395.200000	1210.836707	0.020736
395.300000	1209.261843	0.006087
395.400000	1208.521059	0.001576
395.500000	1200.466215	-0.001311
395.600000	1197.667473	0.039961
395.700000	1203.313693	0.038465
395.800000	1190.767086	0.029012
395.900000	1190.675290	0.010474
396.000000	1191.296270	0.013446
396.100000	1201.209533	0.008143
396.200000	1195.814407	0.020082
396.300000	1205.437985	0.009977
396.400000	1206.530565	0.009928
396.500000	1188.491242	0.010849
396.600000	1196.203515	0.009227
396.700000	1201.507100	-0.003686
396.800000	1215.547365	0.002011
396.900000	1196.485093	-0.003642
397.000000	1203.373258	0.023606
397.100000	1175.955282	0.009656
397.200000	1204.173898	0.009372
397.300000	1195.303510	0.021940
397.400000	1185.372990	0.010994
397.500000	1207.748748	0.023398
397.600000	1203.184078	-0.003994
397.700000	1198.989598	0.005161
397.800000	1197.081845	-0.001191
397.900000	1178.914315	0.019206
398.000000	1180.955483	0.019027
398.100000	1224.947773	0.015554
398.200000	1189.240028	0.017314
398.300000	1189.047109	0.000172
398.400000	1189.249748	0.018742
398.500000	1182.178640	0.013259
398.600000	1198.877721	0.012331
398.700000	1198.382410	0.009997
398.800000	1180.225226	0.008056
398.900000	1169.913264	-0.001793
399.000000	1194.217282	0.012965
399.100000	1192.572154	0.003515
399.200000	1186.867593	-0.009018
399.300000	1186.785545	-0.003083
399.400000	1192.005771	0.007326
399.500000	1185.389957	0.008206
399.600000	1198.364379	0.001332
399.700000	1194.202363	-0.002202
399.800000	1199.034714	-0.003838
399.900000	1206.825733	-0.000311
400.000000	1187.453499	-0.002323
400.100000	1202.712132	0.002178
400.200000	1205.699977	0.000961
400.300000	1201.659393	0.004937
400.400000	1210.300649	0.003255
400.500000	1201.573371	-0.006417
400.600000	1214.221864	0.014705
400.700000	1219.896541	0.013063
400.800000	1203.326984	0.003430
400.900000	1192.484747	0.012696
401.000000	1174.982547	0.012866
401.100000	1199.450023	0.013434
401.200000	1213.187142	0.011381
401.300000	1187.089134	0.010826
401.400000	1193.674047	0.012893
401.500000	1194.941859	0.007309
401.600000	1195.122908	0.012625
401.700000	1194.758301	0.002496
401.800000	1201.925003	0.015725
401.900000	1192.469010	0.012897
402.000000	1225.621879	0.012256
402.100000	1191.544391	0.010337
402.200000	1190.200527	0.001551
402.300000	1197.658581	0.019534
402.400000	1191.926469	0.012674
402.500000	1209.842576	0.010252
402.600000	1193.932557	-0.003121
402.700000	1184.308211	0.010219
402.800000	1195.059005	0.007296
402.900000	1212.660856	0.014324
403.000000	1207.024028	0.011339
403.100000	1212.897292	0.008735
403.200000	1207.254831	0.013498
403.300000	1202.744887	0.007963
403.400000	1201.469521	0.015815
403.500000	1197.239395	0.017781
403.600000	1189.864428	0.024222
403.700000	1206.526155	0.011535
403.800000	1198.956296	0.019613
403.900000	1184.252124	0.015118
404.000000	1191.042955	0.017304
404.100000	1192.985846	0.013775
404.200000	1200.155558	0.016523
404.300000	1191.953874	0.004545
404.400000	1191.375239	0.008338
404.500000	1194.759587	0.021247
404.600000	1203.536735	0.009118
404.700000	1180.533718	0.015767
404.800000	1185.526232	0.007455
404.900000	1183.414166	0.008857
405.000000	1187.107807	0.010247
405.100000	1196.788044	0.006621
405.200000	1183.324828	0.010514
405.300000	1189.515792	0.014312
405.400000	1199.612313	0.001255
405.500000	1183.484017	0.006624
405.600000	1203.201464	-0.000639
405.700000	1206.172205	0.005115
405.800000	1197.063533	0.004135
405.900000	1210.288143	0.008380
406.000000	1193.676729	0.021929
406.100000	1204.238952	0.013361
406.200000	1207.197537	0.002279
406.300000	1200.257401	0.010419
406.400000	1190.583054	0.011388
406.500000	1189.115526	0.005405
406.600000	1197.652659	0.020441
406.700000	1204.754953	0.001445
406.800000	1203.041927	-0.003156
406.900000	1194.124272	0.010273
407.000000	1207.952383	-0.000385
407.100000	1191.663934	0.010630
407.200000	1199.541294	0.010887
407.300000	1201.949764	0.010805
407.400000	1198.897039	0.008730
407.500000	1204.216049	0.002417
407.600000	1193.875016	0.006932
407.700000	1199.293293	0.010980
407.800000	1194.728506	0.002311
407.900000	1201.788138	0.003343
408.000000	1197.787867	-0.007770
408.100000	1201.485174	2.171095E-5
408.200000	1192.929153	0.004466
408.300000	1202.284616	0.010566
408.400000	1202.702725	0.009961
408.500000	1199.155952	0.007804
408.600000	1202.036505	0.017686
408.700000	1206.785823	0.004141
408.800000	1202.810880	0.016870
408.900000	1196.003623	0.017960
409.000000	1199.156227	0.021196
409.100000	1207.388003	0.008434
409.200000	1199.624984	0.001557
409.300000	1198.089058	0.002421
409.400000	1196.330745	0.010386
409.500000	1199.649517	0.018679
409.600000	1211.125808	0.013558
409.700000	1200.080526	0.012130
409.800000	1200.457517	0.008983
409.900000	1188.130261	0.016339
410.000000	1198.260900	0.013191
410.100000	1197.191299	0.006497
410.200000	1206.826278	0.009529
410.300000	1192.604089	0.015762
410.400000	1198.267845	0.005872
410.500000	1199.108261	0.008899
410.600000	1187.341867	0.001456
410.700000	1193.516929	0.012561
410.800000	1197.223158	0.010399
410.900000	1202.111191	0.002582
411.000000	1200.066150	0.009438
411.100000	1201.897814	0.014191
411.200000	1191.293601	0.002855
411.300000	1199.232481	0.011483
411.400000	1196.160807	0.011261
411.500000	1187.839852	0.009259
411.600000	1201.219785	0.011823
411.700000	1197.233843	0.000312
411.800000	1188.913086	0.004763
411.900000	1190.559601	0.005217
412.000000	1188.624978	0.011592
412.100000	1187.217422	0.010555
412.200000	1194.872778	0.008688
412.300000	1187.344131	0.004645
412.400000	1192.297764	0.010759
412.500000	1194.732107	0.005743
412.600000	1195.220799	0.011072
412.700000	1193.370609	0.013780
412.800000	1193.287915	0.004061
412.900000	1191.778398	0.011491
413.000000	1184.980130	0.005124
413.100000	1188.340583	0.006768
413.200000	1205.147878	0.007798
413.300000	1199.565503	0.007152
413.400000	1201.044196	0.001891
413.500000	1205.152625	2.214325E-5
413.600000	1197.341490	0.006432
413.700000	1198.541838	0.004816
413.800000	1200.020207	0.008902
413.900000	1206.005714	0.009631
414.000000	1199.305104	0.009168
414.100000	1200.196345	0.008975
414.200000	1190.316788	0.007009
414.300000	1193.852473	0.005445
414.400000	1203.125023	0.008885
414.500000	1196.079580	0.013332
414.600000	1206.894127	0.005247
414.700000	1201.777290	0.001271
414.800000	1201.377405	0.006595
414.900000	1205.823440	0.006767
415.000000	1205.784938	0.008295
415.100000	1191.838983	0.004183
415.200000	1197.836043	0.007038
415.300000	1195.123911	0.010410
415.400000	1194.715711	0.005069
415.500000	1202.146121	0.011087
415.600000	1198.517744	0.007655
415.700000	1199.188496	0.008426
415.800000	1197.994488	0.004156
415.900000	1192.430810	0.004728
416.000000	1192.081353	0.004398
416.100000	1203.406225	0.011746
416.200000	1203.127555	0.007673
416.300000	1202.732181	0.006086
416.400000	1194.474707	0.004251
416.500000	1195.147169	0.010255
416.600000	1201.469748	0.012168
416.700000	1197.135246	0.004110
416.800000	1194.623890	0.008715
416.900000	1200.346042	0.011832
417.000000	1204.948824	0.014040
417.100000	1206.859497	0.012367
417.200000	1200.040316	0.005834
417.300000	1196.171647	0.004710
417.400000	1198.588776	0.011458
417.500000	1192.727268	0.013192
417.600000	1203.428255	0.012168
417.700000	1201.719877	0.010058
417.800000	1199.368365	0.009996
417.900000	1195.474797	0.009571
418.000000	1195.273220	0.009014
418.100000	1190.108186	0.012415
418.200000	1194.257559	0.007631
418.300000	1200.562049	0.007205
418.400000	1194.641905	0.003121
418.500000	1190.230363	0.004855
418.600000	1189.470421	0.009764
418.700000	1196.519671	0.009540
418.800000	1197.841986	0.003623
418.900000	1197.424322	0.004129
419.000000	1194.317517	0.002345
419.100000	1194.520094	0.003073
419.200000	1201.817436	0.009932
419.300000	1196.837033	0.006512
419.400000	1195.077924	0.002827
419.500000	1200.152547	0.006437
419.600000	1192.768225	0.004347
419.700000	1194.424763	0.000234
419.800000	1191.538999	0.007832
419.900000	1195.409527	0.009440
420.000000	1205.720597	0.010755
420.100000	1202.075910	0.005444
420.200000	1198.527860	0.002768
420.300000	1192.024706	0.007706
420.400000	1194.406685	0.009510
420.500000	1196.993710	0.008115
420.600000	1200.811005	0.008316
420.700000	1195.446740	0.008115
420.800000	1195.485297	0.005527
420.900000	1192.453280	0.006216
421.000000	1193.743138	0.005176
421.100000	1194.868723	0.007515
421.200000	1196.097926	0.005990
421.300000	1200.693983	0.005742
421.400000	1196.196274	0.007100
421.500000	1195.332297	0.007841
421.600000	1197.901998	0.005480
421.700000	1198.803172	0.008125
421.800000	1196.074731	0.008835
421.900000	1200.264000	0.004769
422.000000	1196.397470	0.006093
422.100000	1195.773428	0.003463
422.200000	1198.235101	0.009898
422.300000	1195.446698	0.002922
422.400000	1201.134080	0.008478
422.500000	1201.620545	0.008795
422.600000	1203.600735	0.005898
422.700000	1197.589833	0.006421
422.800000	1200.234941	0.006817
422.900000	1198.182556	0.007671
423.000000	1198.866999	0.007961
423.100000	1203.025736	0.013444
423.200000	1197.397601	0.008964
423.300000	1194.411569	0.010152
423.400000	1199.098203	0.008623
423.500000	1195.717561	0.010121
423.600000	1199.046231	0.012691
423.700000	1198.537009	0.011861
423.800000	1196.507776	0.010770
423.900000	1196.624458	0.009665
424.000000	1192.291697	0.007623
424.100000	1192.084432	0.009679
424.200000	1196.619218	0.010062
424.300000	1200.448430	0.010217
424.400000	1192.574003	0.006523
424.500000	1197.039284	0.009096
424.600000	1194.109757	0.011774
424.700000	1195.989213	0.008689
424.800000	1197.575122	0.009378
424.900000	1197.598499	0.006704
425.000000	1200.459679	0.003428
425.100000	1194.960706	0.006887
425.200000	1197.923380	0.010173
425.300000	1194.734415	0.008861
425.400000	1196.098423	0.011375
425.500000	1200.143916	0.007029
425.600000	1199.051294	0.006849
425.700000	1197.643348	0.008111
425.800000	1197.207763	0.008132
425.900000	1194.896388	0.010114
426.000000	1197.907374	0.008215
426.100000	1194.887689	0.009095
426.200000	1196.253739	0.007952
426.300000	1197.943142	0.004740
426.400000	1198.932732	0.005221
426.500000	1197.766187	0.008394
426.600000	1197.796645	0.007181
426.700000	1201.019223	0.005547
426.800000	1196.555797	0.007868
426.900000	1195.750830	0.007235
427.000000	1196.969849	0.007744
427.100000	1197.568922	0.005720
427.200000	1199.060996	0.009372
427.300000	1198.740540	0.005808
427.400000	1197.261792	0.004489
427.500000	1197.356772	0.005881
427.600000	1198.084334	0.005253
427.700000	1197.680524	0.006042
427.800000	1197.695851	0.006759
427.900000	1199.352292	0.005482
428.000000	1196.409215	0.004337
428.100000	1197.798113	0.005599
428.200000	1202.910241	0.008257
428.300000	1197.409085	0.007562
428.400000	1197.847857	0.007505
428.500000	1198.121941	0.006892
428.600000	1201.433570	0.006265
428.700000	1202.541749	0.006335
428.800000	1197.583547	0.004386
428.900000	1197.646116	0.007239
429.000000	1198.013563	0.008810
429.100000	1200.267083	0.009147
429.200000	1199.141120	0.004508
429.300000	1201.828480	0.005422
429.400000	1197.583635	0.005372
429.500000	1199.599460	0.006961
429.600000	1198.951905	0.008835
429.700000	1200.210243	0.005465
429.800000	1198.487392	0.007608
429.900000	1196.467484	0.005679
430.000000	1197.379011	0.006159
430.100000	1199.672612	0.007165
430.200000	1200.199578	0.007815
430.300000	1198.035246	0.006793
430.400000	1199.241879	0.008751
430.500000	1197.040163	0.004967
430.600000	1198.841671	0.007380
430.700000	1198.590158	0.008202
430.800000	1200.210480	0.007551
430.900000	1199.762054	0.006812
431.000000	1197.760243	0.005506
431.100000	1196.180110	0.007282
431.200000	1199.527055	0.008437
431.300000	1196.776615	0.009157
431.400000	1196.182704	0.007204
431.500000	1198.008856	0.007779
431.600000	1194.619144	0.006504
431.700000	1195.844276	0.006885
431.800000	1196.138592	0.005352
431.900000	1194.872364	0.007995
432.000000	1196.813776	0.008605
432.100000	1197.336792	0.005999
432.200000	1193.974834	0.005011
432.300000	1194.858063	0.003268
432.400000	1194.190706	0.006478
432.500000	1198.347462	0.007817
432.600000	1197.623349	0.006143
432.700000	1197.509875	0.007027
432.800000	1196.084071	0.008710
432.900000	1196.887564	0.004955
433.000000	1198.843641	0.004445
433.100000	1197.513188	0.004707
433.200000	1199.123969	0.006178
433.300000	1197.164785	0.005805
433.400000	1197.768664	0.006785
433.500000	1196.578853	0.007333
433.600000	1195.532481	0.006409
433.700000	1196.945789	0.006090
433.800000	1196.156180	0.006306
433.900000	1196.637087	0.006176
434.000000	1196.084653	0.006996
434.100000	1197.357494	0.008186
434.200000	1197.695192	0.006428
434.300000	1197.129966	0.005276
434.400000	1193.337005	0.005651
434.500000	1199.529933	0.006570
434.600000	1198.026937	0.007422
434.700000	1196.356971	0.005711
434.800000	1197.321936	0.005624
434.900000	1196.015236	0.005970
435.000000	1196.332227	0.006208
435.100000	1197.783532	0.005609
435.200000	1197.540054	0.005250
435.300000	1197.831691	0.004225
435.400000	1198.362061	0.007562
435.500000	1196.527669	0.005091
435.600000	1197.489442	0.005879
435.700000	1199.441602	0.005540
435.800000	1197.577349	0.007857
435.900000	1199.510513	0.005706
436.000000	1197.720954	0.004799
436.100000	1195.547712	0.006615
436.200000	1198.159032	0.005195
436.300000	1199.936577	0.007193
436.400000	1200.951251	0.006151
436.500000	1198.887769	0.007088
436.600000	1198.581558	0.007283
436.700000	1199.007894	0.006994
436.800000	1198.358469	0.005993
436.900000	1198.352711	0.007007
437.000000	1196.830222	0.006975
437.100000	1198.193071	0.007624
437.200000	1197.354428	0.008860
437.300000	1196.796031	0.007284
437.400000	1197.091575	0.006374
437.500000	1199.871983	0.006898
437.600000	1197.201197	0.005718
437.700000	1196.754568	0.005825
437.800000	1198.027125	0.007363
437.900000	1195.295779	0.007312
438.000000	1196.687498	0.007524
438.100000	1196.227504	0.004529
438.200000	1196.877645	0.006020
438.300000	1198.095210	0.006642
438.400000	1199.235152	0.007218
438.500000	1198.298858	0.006787
438.600000	1198.047184	0.006655
438.700000	1198.819539	0.006025
438.800000	1198.878592	0.005789
438.900000	1198.718752	0.005838
439.000000	1197.029999	0.005911
439.100000	1196.283257	0.006582
439.200000	1197.469974	0.006581
439.300000	1198.031075	0.005333
439.400000	1196.490152	0.006531
439.500000	1196.715858	0.006590
439.600000	1198.122231	0.006347
439.700000	1197.650021	0.007120
439.800000	1198.976821	0.005383
439.900000	1196.960102	0.005332
440.000000	1196.250375	0.006594
440.100000	1198.109312	0.007342
440.200000	1197.234581	0.006230
440.300000	1197.382321	0.004769
440.400000	1196.152808	0.005897
440.500000	1197.348137	0.005563
440.600000	1197.169983	0.004854
440.700000	1197.033272	0.005153
440.800000	1198.490412	0.004934
440.900000	1196.389267	0.004585
441.000000	1197.106002	0.005634
441.100000	1197.098386	0.006742
441.200000	1197.582900	0.005247
441.300000	1197.452853	0.004643
441.400000	1198.122819	0.004478
441.500000	1196.742734	0.005579
441.600000	1196.120954	0.006415
441.700000	1197.794588	0.006517
441.800000	1197.632916	0.004971
441.900000	1197.805336	0.004752
442.000000	1196.398122	0.004672
442.100000	1198.366273	0.006781
442.200000	1200.032859	0.006821
442.300000	1198.566838	0.005586
442.400000	1197.786441	0.004926
442.500000	1197.640289	0.005224
442.600000	1196.795019	0.005867
442.700000	1197.946740	0.005535
442.800000	1198.953671	0.006369
442.900000	1198.523364	0.005971
443.000000	1197.894268	0.006740
443.100000	1197.329903	0.006255
443.200000	1198.166842	0.005312
443.300000	1198.128160	0.005151
443.400000	1197.230996	0.005297
443.500000	1197.970876	0.005523
443.600000	1197.552151	0.006196
443.700000	1196.944988	0.005872
443.800000	1197.360865	0.004827
443.900000	1197.611956	0.005740
444.000000	1197.919161	0.007259
444.100000	1197.837328	0.006241
444.200000	1198.469680	0.005831
444.300000	1197.632304	0.004914
444.400000	1197.904396	0.005758
444.500000	1196.726787	0.006575
444.600000	1197.847108	0.005733
444.700000	1197.132701	0.005755
444.800000	1196.447635	0.004983
444.900000	1196.430340	0.005560
445.000000	1196.201441	0.005445
445.100000	1198.045469	0.006147
445.200000	1198.263699	0.006022
445.300000	1198.002326	0.004532
445.400000	1197.166821	0.005325
445.500000	1196.734704	0.006546
445.600000	1197.211688	0.005749
445.700000	1198.210088	0.005691
445.800000	1198.045130	0.005684
445.900000	1197.206825	0.005494
446.000000	1198.023369	0.005717
446.100000	1197.617105	0.005318
446.200000	1196.776296	0.004602
446.300000	1197.115221	0.005219
446.400000	1197.049799	0.005648
446.500000	1198.408682	0.006719
446.600000	1198.614412	0.006026
446.700000	1197.336956	0.005272
446.800000	1197.028965	0.004708
446.900000	1196.958540	0.005386
447.000000	1196.321931	0.006344
447.100000	1197.323746	0.005479
447.200000	1198.154541	0.004890
447.300000	1197.689713	0.004371
447.400000	1197.036118	0.005183
447.500000	1196.866875	0.005462
447.600000	1196.745716	0.006036
447.700000	1197.982090	0.005025
447.800000	1197.567171	0.004489
447.900000	1196.790809	0.004856
448.000000	1197.401372	0.004737
448.100000	1197.069311	0.005945
448.200000	1197.337600	0.004733
448.300000	1197.699803	0.004959
448.400000	1197.470232	0.005116
448.500000	1197.656227	0.004355
448.600000	1197.914911	0.005227
448.700000	1197.929387	0.005287
448.800000	1197.607253	0.005119
448.900000	1197.529275	0.004915
449.000000	1198.169737	0.005239
449.100000	1197.534805	0.004424
449.200000	1197.163388	0.004378
449.300000	1196.664959	0.005503
449.400000	1197.800580	0.004806
449.500000	1198.828022	0.005513
449.600000	1198.769877	0.005066
449.700000	1198.221862	0.005045
449.800000	1197.608816	0.004959
449.900000	1197.239272	0.005434
450.000000	1197.343227	0.005248
450.100000	1197.840689	0.004591
450.200000	1197.459942	0.004818
450.300000	1197.503421	0.004874
450.400000	1197.261058	0.005083
450.500000	1197.013308	0.004958
450.600000	1197.198043	0.004651
450.700000	1197.706297	0.004886
450.800000	1197.452063	0.004939
450.900000	1197.156429	0.004858
451.000000	1197.786459	0.005273
451.100000	1198.008653	0.005633
451.200000	1196.831336	0.004783
451.300000	1197.121478	0.004657
451.400000	1197.256895	0.005041
451.500000	1198.032130	0.004826
451.600000	1198.167837	0.004500
451.700000	1197.726939	0.004517
451.800000	1197.477064	0.004916
451.900000	1197.524104	0.004782
452.000000	1197.505298	0.005197
452.100000	1197.659559	0.004914
452.200000	1196.955425	0.005104
452.300000	1196.513523	0.004893
452.400000	1197.098688	0.004817
452.500000	1198.145774	0.004722
452.600000	1198.085448	0.004958
452.700000	1197.070376	0.004998
452.800000	1197.227097	0.004580
452.900000	1196.836666	0.004826
453.000000	1196.917180	0.005035
453.100000	1197.721032	0.004974
453.200000	1198.016959	0.004701
453.300000	1197.650403	0.004664
453.400000	1197.069926	0.004917
453.500000	1196.795771	0.004417
453.600000	1196.964240	0.004521
453.700000	1197.277634	0.004893
453.800000	1197.420379	0.004723
453.900000	1197.512251	0.004440
454.000000	1197.882230	0.004688
454.100000	1197.494704	0.004816
454.200000	1197.307285	0.004622
454.300000	1197.466662	0.004900
454.400000	1197.484954	0.004267
454.500000	1197.771303	0.004057
454.600000	1197.598751	0.003897
454.700000	1197.320865	0.004386
454.800000	1196.898266	0.004536
454.900000	1197.389668	0.004656
455.000000	1197.464205	0.004373
455.100000	1197.482040	0.004108
455.200000	1197.248404	0.004645
455.300000	1197.072000	0.004426
455.400000	1197.604189	0.004639
455.500000	1197.970119	0.004498
455.600000	1197.363310	0.004590
455.700000	1197.544905	0.004255
455.800000	1197.411576	0.004215
455.900000	1197.112552	0.004669
456.000000	1197.398895	0.004532
456.100000	1197.953303	0.004184
456.200000	1197.699976	0.004186
456.300000	1197.633893	0.004286
456.400000	1197.117856	0.004410
456.500000	1197.030792	0.004303
456.600000	1197.532203	0.004370
456.700000	1197.360190	0.004425
456.800000	1197.585947	0.004585
456.900000	1198.014035	0.004347
457.000000	1197.737577	0.004383
457.100000	1197.670391	0.004148
457.200000	1197.508691	0.004382
457.300000	1197.460114	0.004512
457.400000	1197.335628	0.004413
457.500000	1197.297718	0.004269
457.600000	1197.849148	0.004299
457.700000	1197.690993	0.004292
457.800000	1197.424498	0.004420
457.900000	1197.215695	0.004421
458.000000	1197.391407	0.004261
458.100000	1197.489786	0.004005
458.200000	1197.480639	0.004124
458.300000	1197.862406	0.004164
458.400000	1197.699804	0.003925
458.500000	1197.171416	0.004036
458.600000	1197.210446	0.004199
458.700000	1197.226032	0.004303
458.800000	1197.423342	0.004027
458.900000	1197.287468	0.003831
459.000000	1197.378365	0.003988
459.100000	1197.542743	0.003888
459.200000	1197.473948	0.004049
459.300000	1197.750421	0.004190
459.400000	1197.277798	0.003883
459.500000	1197.398942	0.003892
459.600000	1197.393564	0.004058
459.700000	1197.691997	0.004420
459.800000	1197.761814	0.004422
459.900000	1197.588986	0.004144
460.000000	1197.579482	0.004107
460.100000	1197.567918	0.003934
460.200000	1197.210310	0.004268
460.300000	1197.078874	0.004177
460.400000	1197.514711	0.003994
460.500000	1197.494911	0.003617
460.600000	1197.136057	0.003864
460.700000	1197.480246	0.004009
460.800000	1197.300944	0.003897
460.900000	1197.132137	0.003949
461.000000	1197.128495	0.004036
461.100000	1197.147982	0.003853
461.200000	1197.373067	0.003926
461.300000	1197.443720	0.003795
461.400000	1197.683113	0.003583
461.500000	1197.525775	0.003710
461.600000	1197.344717	0.003974
461.700000	1197.361313	0.003769
461.800000	1197.464919	0.003528
461.900000	1197.378156	0.003655
462.000000	1197.168306	0.003711
462.100000	1197.247402	0.003596
462.200000	1197.489026	0.004003
462.300000	1197.547560	0.003985
462.400000	1197.354733	0.003675
462.500000	1197.236781	0.003550
462.600000	1197.388547	0.003697
462.700000	1197.654041	0.003793
462.800000	1197.754821	0.003809
462.900000	1197.437557	0.003773
463.000000	1197.327924	0.003777
463.100000	1197.360664	0.003795
463.200000	1197.068096	0.003535
463.300000	1197.062917	0.003677
463.400000	1197.373295	0.004031
463.500000	1197.549569	0.003904
463.600000	1197.524317	0.003697
463.700000	1197.525380	0.003702
463.800000	1197.313686	0.003640
463.900000	1197.319609	0.003529
464.000000	1197.373761	0.003651
464.100000	1197.210429	0.003701
464.200000	1197.317084	0.003541
464.300000	1197.586503	0.003445
464.400000	1197.357865	0.003381
464.500000	1197.252131	0.003512
464.600000	1197.335622	0.003523
464.700000	1197.469897	0.003364
464.800000	1197.729650	0.003411
464.900000	1197.546547	0.003285
465.000000	1197.190872	0.003513
465.100000	1197.397358	0.003623
465.200000	1197.690337	0.003591
465.300000	1197.668276	0.003566
465.400000	1197.355247	0.003466
465.500000	1197.228661	0.003517
465.600000	1197.214359	0.003563
465.700000	1197.524504	0.003441
465.800000	1197.660455	0.003519
465.900000	1197.512422	0.003519
466.000000	1197.468452	0.003617
466.100000	1197.333021	0.003494
466.200000	1197.242420	0.003327
466.300000	1197.083386	0.003388
466.400000	1197.305474	0.003361
466.500000	1197.316976	0.003400
466.600000	1197.324754	0.003430
466.700000	1197.252474	0.003478
466.800000	1197.278420	0.003311
466.900000	1197.453411	0.003390
467.000000	1197.431773	0.003367
467.100000	1197.400638	0.003263
467.200000	1197.514283	0.003404
467.300000	1197.633275	0.003450
467.400000	1197.552267	0.003388
467.500000	1197.379381	0.003324
467.600000	1197.258247	0.003258
467.700000	1197.315594	0.003167
467.800000	1197.454986	0.003147
467.900000	1197.420754	0.003329
468.000000	1197.405772	0.003322
468.100000	1197.493683	0.003291
468.200000	1197.563455	0.003272
468.300000	1197.639345	0.003126
468.400000	1197.357104	0.003093
468.500000	1197.283278	0.003159
468.600000	1197.471944	0.003150
468.700000	1197.528531	0.003091
468.800000	1197.249084	0.003157
468.900000	1197.233625	0.003175
469.000000	1197.501204	0.003159
469.100000	1197.390592	0.003138
469.200000	1197.313891	0.003067
469.300000	1197.420257	0.003063
469.400000	1197.489219	0.003121
469.500000	1197.348388	0.003122
469.600000	1197.329137	0.003174
469.700000	1197.427470	0.003084
469.800000	1197.387343	0.003004
469.900000	1197.294412	0.002929
470.000000	1197.320142	0.002828
470.100000	1197.422840	0.003026
470.200000	1197.374411	0.003038
470.300000	1197.552307	0.002987
470.400000	1197.468984	0.002991
470.500000	1197.293646	0.002960
470.600000	1197.325919	0.002993
470.700000	1197.310307	0.002924
470.800000	1197.412700	0.002878
470.900000	1197.422977	0.002839
471.000000	1197.351045	0.003013
471.100000	1197.433476	0.003034
471.200000	1197.506392	0.002877
471.300000	1197.449998	0.002904
471.400000	1197.313146	0.002776
471.500000	1197.314138	0.002838
471.600000	1197.470007	0.002875
471.700000	1197.435923	0.002910
471.800000	1197.358000	0.002853
471.900000	1197.392947	0.002742
472.000000	1197.336722	0.002733
472.100000	1197.370471	0.002679
472.200000	1197.334419	0.002675
472.300000	1197.402242	0.002737
472.400000	1197.462794	0.002741
472.500000	1197.368080	0.002712
472.600000	1197.325738	0.002739
472.700000	1197.392802	0.002793
472.800000	1197.441230	0.002708
472.900000	1197.463149	0.002675
473.000000	1197.440049	0.002640
473.100000	1197.345323	0.002668
473.200000	1197.267073	0.002686
473.300000	1197.350778	0.002666
473.400000	1197.408020	0.002716
473.500000	1197.379553	0.002763
473.600000	1197.328840	0.002738
473.700000	1197.372338	0.002612
473.800000	1197.345384	0.002607
473.900000	1197.325450	0.002614
474.000000	1197.365073	0.002673
474.100000	1197.445391	0.002682
474.200000	1197.421951	0.002617
474.300000	1197.297588	0.002531
474.400000	1197.241109	0.002517
474.500000	1197.297648	0.002598
474.600000	1197.425010	0.002565
474.700000	1197.458431	0.002538
474.800000	1197.418343	0.002539
474.900000	1197.362744	0.002574
475.000000	1197.356128	0.002515
475.100000	1197.358123	0.002557
475.200000	1197.365902	0.002505
475.300000	1197.434040	0.002418
475.400000	1197.455305	0.002485
475.500000	1197.427021	0.002518
475.600000	1197.412569	0.002492
475.700000	1197.378856	0.002433
475.800000	1197.354646	0.002392
475.900000	1197.386887	0.002351
476.000000	1197.394164	0.002392
476.100000	1197.324486	0.002450
476.200000	1197.355019	0.002443
476.300000	1197.421734	0.002439
476.400000	1197.391064	0.002359
476.500000	1197.372705	0.002387
476.600000	1197.369754	0.002377
476.700000	1197.376099	0.002287
476.800000	1197.351408	0.002303
476.900000	1197.388044	0.002312
477.000000	1197.336814	0.002360
477.100000	1197.378858	0.002351
477.200000	1197.400454	0.002302
477.300000	1197.337764	0.002284
477.400000	1197.302624	0.002268
477.500000	1197.298581	0.002295
477.600000	1197.373717	0.002262
477.700000	1197.385223	0.002227
477.800000	1197.355004	0.002190
477.900000	1197.357427	0.002186
478.000000	1197.357735	0.002176
478.100000	1197.409649	0.002214
478.200000	1197.385434	0.002230
478.300000	1197.374761	0.002218
478.400000	1197.415763	0.002195
478.500000	1197.426184	0.002188
478.600000	1197.416505	0.002181
478.700000	1197.396629	0.002105
478.800000	1197.364721	0.002119
478.900000	1197.353818	0.002106
479.000000	1197.409220	0.002101
479.100000	1197.436311	0.002105
479.200000	1197.377062	0.002124
479.300000	1197.349620	0.002120
479.400000	1197.368007	0.002068
479.500000	1197.369628	0.002058
479.600000	1197.408017	0.002007
479.700000	1197.414878	0.001978
479.800000	1197.396188	0.002005
479.900000	1197.380215	0.002030
480.000000	1197.345547	0.001994
480.100000	1197.374677	0.001993
480.200000	1197.395805	0.001996
480.300000	1197.402197	0.001945
480.400000	1197.365208	0.001929
480.500000	1197.372271	0.001963
480.600000	1197.396697	0.001990
480.700000	1197.391420	0.001968
480.800000	1197.377605	0.001926
480.900000	1197.396828	0.001885
481.000000	1197.432065	0.001876
481.100000	1197.382020	0.001895
481.200000	1197.360668	0.001899
481.300000	1197.372480	0.001910
481.400000	1197.346130	0.001891
481.500000	1197.393222	0.001867
481.600000	1197.403630	0.001850
481.700000	1197.371347	0.001837
481.800000	1197.344422	0.001829
481.900000	1197.369957	0.001816
482.000000	1197.396285	0.001818
482.100000	1197.399903	0.001810
482.200000	1197.410134	0.001783
482.300000	1197.396987	0.001778
482.400000	1197.399994	0.001767
482.500000	1197.385854	0.001759
482.600000	1197.370185	0.001757
482.700000	1197.377346	0.001740
482.800000	1197.386372	0.001730
482.900000	1197.403769	0.001704
483.000000	1197.378319	0.001707
483.100000	1197.361372	0.001720
483.200000	1197.391126	0.001680
483.300000	1197.377682	0.001645
483.400000	1197.344223	0.001638
483.500000	1197.373571	0.001641
483.600000	1197.412885	0.001650
483.700000	1197.381123	0.001655
483.800000	1197.382972	0.001647
483.900000	1197.393516	0.001609
484.000000	1197.375327	0.001581
484.100000	1197.383639	0.001589
484.200000	1197.368983	0.001574
484.300000	1197.362958	0.001568
484.400000	1197.390288	0.001562
484.500000	1197.397010	0.001569
484.600000	1197.387236	0.001567
484.700000	1197.355879	0.001530
484.800000	1197.352106	0.001526
484.900000	1197.374512	0.001521
485.000000	1197.379254	0.001496
485.100000	1197.378681	0.001485
485.200000	1197.360586	0.001489
485.300000	1197.370828	0.001476
485.400000	1197.372935	0.001467
485.500000	1197.369199	0.001445
485.600000	1197.383308	0.001428
485.700000	1197.399820	0.001424
485.800000	1197.402295	0.001399
485.900000	1197.382770	0.001388
486.000000	1197.377624	0.001400
486.100000	1197.388657	0.001422
486.200000	1197.387298	0.001390
486.300000	1197.381011	0.001367
486.400000	1197.357422	0.001354
486.500000	1197.373581	0.001342
486.600000	1197.406557	0.001336
486.700000	1197.384112	0.001330
486.800000	1197.377856	0.001327
486.900000	1197.383211	0.001312
487.000000	1197.375681	0.001301
487.100000	1197.357094	0.001288
487.200000	1197.371131	0.001278
487.300000	1197.354627	0.001272
487.400000	1197.345768	0.001282
487.500000	1197.372092	0.001269
487.600000	1197.398123	0.001226
487.700000	1197.398738	0.001208
487.800000	1197.390888	0.001207
487.900000	1197.381055	0.001201
488.000000	1197.383182	0.001190
488.100000	1197.388514	0.001181
488.200000	1197.371712	0.001178
488.300000	1197.380742	0.001163
488.400000	1197.388268	0.001139
488.500000	1197.382225	0.001138
488.600000	1197.376584	0.001148
488.700000	1197.386909	0.001136
488.800000	1197.391582	0.001130
488.900000	1197.381438	0.001124
489.000000	1197.362087	0.001110
489.100000	1197.359788	0.001103
489.200000	1197.357253	0.001097
489.300000	1197.347155	0.001087
489.400000	1197.352407	0.001072
489.500000	1197.364294	0.001050
489.600000	1197.379853	0.001030
489.700000	1197.391623	0.001020
489.800000	1197.394577	0.001002
489.900000	1197.375768	0.000997
490.000000	1197.376800	0.001002
490.100000	1197.384820	0.001001
490.200000	1197.377166	0.000979
490.300000	1197.360196	0.000972
490.400000	1197.365362	0.000967
490.500000	1197.379579	0.000952
490.600000	1197.380985	0.000943
490.700000	1197.373833	0.000928
490.800000	1197.372887	0.000921
490.900000	1197.381995	0.000919
491.000000	1197.375074	0.000914
491.100000	1197.366882	0.000897
491.200000	1197.364857	0.000879
491.300000	1197.354558	0.000871
491.400000	1197.335246	0.000864
491.500000	1197.367015	0.000849
491.600000	1197.410760	0.000834
491.700000	1197.393447	0.000829
491.800000	1197.393842	0.000815
491.900000	1197.381360	0.000796
492.000000	1197.368511	0.000792
492.100000	1197.380324	0.000800
492.200000	1197.391679	0.000789
492.300000	1197.388266	0.000773
492.400000	1197.390012	0.000749
492.500000	1197.382974	0.000749
492.600000	1197.365191	0.000751
492.700000	1197.366822	0.000731
492.800000	1197.377315	0.000729
492.900000	1197.375743	0.000716
493.000000	1197.382178	0.000707
493.100000	1197.380588	0.000705
493.200000	1197.367437	0.000694
493.300000	1197.356609	0.000678
493.400000	1197.330815	0.000679
493.500000	1197.377131	0.000652
493.600000	1197.426885	0.000614
493.700000	1197.396117	0.000619
493.800000	1197.386926	0.000615
493.900000	1197.380527	0.000612
494.000000	1197.379082	0.000588
494.100000	1197.386342	0.000557
494.200000	1197.388602	0.000557
494.300000	1197.383338	0.000541
494.400000	1197.355081	0.000497
494.500000	1197.412145	0.000527
494.600000	1197.456025	0.000559
494.700000	1197.400202	0.000517
494.800000	1197.375096	0.000510
494.900000	1197.364966	0.000512
495.000000	1197.376218	0.000490
495.100000	1197.389676	0.000468
495.200000	1197.381582	0.000471
495.300000	1197.385388	0.000462
495.400000	1197.394842	0.000442
495.500000	1197.383471	0.000446
495.600000	1197.369722	0.000454
495.700000	1197.377220	0.000435
495.800000	1197.376873	0.000424
495.900000	1197.375316	0.000415
496.000000	1197.379136	0.000402
496.100000	1197.381912	0.000388
496.200000	1197.381244	0.000380
496.300000	1197.384233	0.000372
496.400000	1197.393809	0.000364
496.500000	1197.377130	0.000350
496.600000	1197.359685	0.000335
496.700000	1197.370375	0.000328
496.800000	1197.372607	0.000318
496.900000	1197.373613	0.000308
497.000000	1197.374024	0.000300
497.100000	1197.374274	0.000290
497.200000	1197.374288	0.000279
497.300000	1197.373602	0.000269
497.400000	1197.370681	0.000259
497.500000	1197.376762	0.000250
497.600000	1197.382747	0.000241
497.700000	1197.379164	0.000231
497.800000	1197.378485	0.000221
497.900000	1197.378036	0.000211
498.000000	1197.377938	0.000200
498.100000	1197.378170	0.000189
498.200000	1197.378233	0.000180
498.300000	1197.378446	0.000170
498.400000	1197.379746	0.000160
498.500000	1197.377544	0.000150
498.600000	1197.375195	0.000140
498.700000	1197.376510	0.000130
498.800000	1197.376842	0.000120
498.900000	1197.376993	0.000110
499.000000	1197.377071	9.994973E-5
499.100000	1197.377117	8.995659E-5
499.200000	1197.377148	7.996668E-5
499.300000	1197.377148	6.997550E-5
499.400000	1197.377051	5.997057E-5
499.500000	1197.377273	4.998845E-5
499.600000	1197.377488	3.999955E-5
499.700000	1197.377378	2.999662E-5
499.800000	1197.377359	1.999679E-5
499.900000	1197.377353	9.998434E-6
