LabVIEW Measurement	
Writer_Version	2
Reader_Version	2
Separator	Tab
Decimal_Separator	.
Multi_Headings	No
X_Columns	One
Time_Pref	Relative
Operator	MSE_SETUP10
Date	2025/03/17
Time	13:56:45.95574188232421875
***End_of_Header***	
	
Channels	2		
Samples	5000	5000	
Date	1903/12/31	1903/12/31	
Time	18:00:00	18:00:00	
X_Dimension	Time	Time	
X0	0.0000000000000000E+0	0.0000000000000000E+0	
Delta_X	0.100000	0.100000	
***End_of_Header***			
X_Value	FRF Magnitude 1	FRF Phase 1	Comment
0.000000	7485042.157755	3.141593
0.100000	2394.042974	-0.138392
0.200000	749.542381	-1.066187
0.300000	393.100984	-2.344444
0.400000	434.010778	2.007220
0.500000	1.117364	-0.055444
0.600000	370.944862	-2.043227
0.700000	120.562596	2.724905
0.800000	406.155579	-2.401410
0.900000	1671.285421	2.428060
1.000000	9518.847071	1.505725
1.100000	7075.197988	-1.612454
1.200000	1590.886842	-0.144395
1.300000	632.800623	0.436015
1.400000	67.264518	-2.428651
1.500000	1.393944	-0.159359
1.600000	302.859411	-2.721768
1.700000	390.757067	-2.353405
1.800000	344.966413	-0.952100
1.900000	762.641343	-1.176985
2.000000	12332.110005	1.462983
2.100000	1098.066908	0.218327
2.200000	821.191055	-1.945722
2.300000	1148.400534	2.611871
2.400000	1041.289061	-0.706323
2.500000	12057.836099	-2.351722
2.600000	2318.528676	-1.790895
2.700000	2717.810031	-1.960213
2.800000	213.091419	2.897045
2.900000	239.341584	3.103069
3.000000	3436.182115	-0.187077
3.100000	1654.189397	0.818217
3.200000	388.089187	-3.102145
3.300000	3471.963000	-2.383248
3.400000	2704.002557	2.397968
3.500000	7975.053853	0.890927
3.600000	2694.722530	-2.443455
3.700000	2375.302500	2.477760
3.800000	1520.943278	0.697929
3.900000	3266.379982	-0.633259
4.000000	9338.019902	-1.905237
4.100000	631.025560	-1.695548
4.200000	2316.586424	0.565279
4.300000	6367.859711	-0.750990
4.400000	7534.984926	-1.891324
4.500000	39839.100314	-2.704238
4.600000	12703.617200	-1.734861
4.700000	17173.021197	-2.043122
4.800000	13770.629726	2.914024
4.900000	9252.385420	2.061245
5.000000	34745.781095	0.331105
5.100000	6430.958153	-3.025308
5.200000	8182.028526	2.462932
5.300000	13464.640283	-0.931936
5.400000	16214.056160	-2.753734
5.500000	17815.853003	-1.916500
5.600000	21452.225510	-3.072838
5.700000	22569.565216	3.131847
5.800000	27636.387196	1.662757
5.900000	17070.660564	0.982092
6.000000	10086.871195	-0.428765
6.100000	5231.041350	1.110197
6.200000	8966.739168	0.817340
6.300000	1956.545289	-0.500742
6.400000	4161.709164	1.622799
6.500000	46759.776502	0.230903
6.600000	5136.292656	1.699678
6.700000	12078.525839	0.955573
6.800000	4290.366716	0.473133
6.900000	3024.837303	-1.436532
7.000000	4337.868368	1.594961
7.100000	4328.641837	0.778777
7.200000	4390.300475	0.802885
7.300000	4893.520693	0.653262
7.400000	2359.603967	1.425830
7.500000	5158.065053	0.998122
7.600000	610.434724	-1.720820
7.700000	1665.383488	-2.668077
7.800000	3603.177103	1.462599
7.900000	4812.997879	1.134137
8.000000	9384.649430	-1.091424
8.100000	6276.029475	1.236296
8.200000	2067.403931	1.255203
8.300000	2977.914841	1.536438
8.400000	3244.661942	0.701053
8.500000	9254.186294	0.596768
8.600000	5644.040710	0.557770
8.700000	5044.680938	0.922807
8.800000	2106.935638	0.192781
8.900000	937.991299	0.973293
9.000000	2295.393618	-0.003215
9.100000	859.550222	3.137329
9.200000	1737.352050	1.281235
9.300000	2706.958647	0.895356
9.400000	2156.396904	0.412841
9.500000	2658.140545	-0.595611
9.600000	1490.691608	0.956561
9.700000	2730.053027	0.974713
9.800000	2400.174976	1.515062
9.900000	1784.470305	1.479727
10.000000	1773.226405	-0.044540
10.100000	1491.914779	-0.595399
10.200000	1796.393431	0.744196
10.300000	2348.931952	0.568269
10.400000	4459.744479	0.446701
10.500000	4081.235431	0.536018
10.600000	2761.143681	0.836006
10.700000	2647.528382	0.749064
10.800000	1287.066439	-0.249503
10.900000	2082.298694	-0.778452
11.000000	2547.664561	1.097099
11.100000	1269.043013	1.429473
11.200000	695.499366	1.154682
11.300000	1894.230809	0.207514
11.400000	2033.959282	0.414027
11.500000	1529.785736	-0.669595
11.600000	1579.493604	0.881543
11.700000	1106.260540	-0.043160
11.800000	1590.999183	1.340027
11.900000	1905.287932	0.998968
12.000000	1424.031861	-1.493403
12.100000	2786.225773	0.300928
12.200000	2151.047803	0.008675
12.300000	654.754830	2.768339
12.400000	2067.089576	0.591901
12.500000	4470.355567	0.745071
12.600000	2286.135075	0.546820
12.700000	1932.368562	0.949156
12.800000	679.357472	-0.190485
12.900000	1605.159808	0.309531
13.000000	2961.433298	0.922323
13.100000	1265.645804	0.312092
13.200000	1463.893995	0.907557
13.300000	1317.399949	-0.011212
13.400000	991.952782	1.187584
13.500000	1415.189974	-0.481270
13.600000	1391.559845	0.019997
13.700000	836.768557	-0.621978
13.800000	1636.957482	1.538930
13.900000	2315.441316	1.250501
14.000000	1581.910581	0.089317
14.100000	1405.209941	0.679161
14.200000	1787.195244	0.793944
14.300000	1343.117920	0.245448
14.400000	1314.427408	0.577723
14.500000	3051.460035	0.463020
14.600000	1825.497747	0.615961
14.700000	1678.542823	0.529359
14.800000	1454.274589	0.469395
14.900000	954.575104	0.929222
15.000000	823.416366	0.530347
15.100000	895.499953	0.668351
15.200000	1513.938748	0.458984
15.300000	1345.057049	0.651067
15.400000	1398.698722	-0.119199
15.500000	1569.453058	0.349868
15.600000	1524.827734	0.714531
15.700000	971.118904	0.831596
15.800000	2273.762568	0.609921
15.900000	1626.145110	0.565377
16.000000	1809.525072	-0.388879
16.100000	1704.932885	0.644792
16.200000	832.181350	0.610397
16.300000	1311.328759	0.332219
16.400000	1944.200555	-0.024584
16.500000	1913.587409	0.154608
16.600000	2022.873531	0.806676
16.700000	2967.235121	0.872410
16.800000	1785.352388	0.018792
16.900000	1507.254607	0.150909
17.000000	1489.746162	0.185466
17.100000	1655.698730	-0.088548
17.200000	1971.789264	0.516461
17.300000	1686.050453	0.242194
17.400000	1310.942435	-0.149215
17.500000	1242.652558	0.573213
17.600000	673.613227	0.717708
17.700000	1397.985889	0.658727
17.800000	1597.395474	0.847955
17.900000	1896.432648	0.526680
18.000000	1913.114516	0.230102
18.100000	1833.122092	0.617256
18.200000	1408.890520	-0.099215
18.300000	524.341780	0.605678
18.400000	2433.597470	0.290017
18.500000	2067.356014	0.299451
18.600000	1385.135585	0.136269
18.700000	1575.930108	-0.172707
18.800000	1585.580274	0.577015
18.900000	2062.986515	0.527502
19.000000	1080.734394	0.010570
19.100000	1351.450961	0.497409
19.200000	1167.395279	0.435732
19.300000	846.460292	0.090468
19.400000	1631.031225	0.581133
19.500000	1542.887119	0.328065
19.600000	1141.703833	0.384826
19.700000	1058.342157	0.376059
19.800000	1539.799572	0.025911
19.900000	1080.949065	0.551155
20.000000	974.232123	0.192283
20.100000	1679.152557	0.181794
20.200000	1202.854038	-0.158305
20.300000	995.369993	0.122357
20.400000	838.109442	0.837599
20.500000	1713.088584	0.183359
20.600000	1455.596948	0.435051
20.700000	1261.888718	0.388348
20.800000	1813.559174	0.013254
20.900000	1503.108039	0.026943
21.000000	2075.243473	0.446022
21.100000	1092.731949	0.106679
21.200000	1527.484148	0.460140
21.300000	825.164545	0.042427
21.400000	812.635495	0.339423
21.500000	1288.124440	0.328929
21.600000	1406.864010	0.407636
21.700000	1265.630254	0.168207
21.800000	1431.446698	0.480952
21.900000	641.111335	0.569199
22.000000	921.272660	-0.323334
22.100000	1499.235118	0.290083
22.200000	1318.223241	0.722218
22.300000	1657.139044	0.598414
22.400000	1479.156368	0.219555
22.500000	1170.987107	0.175386
22.600000	1401.264899	0.539968
22.700000	1113.180243	0.117751
22.800000	1112.999525	0.419444
22.900000	1510.821394	0.232339
23.000000	796.649170	-0.134499
23.100000	1700.240474	0.511667
23.200000	985.233544	0.866685
23.300000	1332.335847	0.607796
23.400000	1225.710482	0.571492
23.500000	2077.677142	0.307830
23.600000	801.562296	-0.110479
23.700000	894.434460	0.500189
23.800000	1171.164918	-0.185569
23.900000	2367.638656	0.328288
24.000000	804.860391	0.303384
24.100000	839.300833	0.184887
24.200000	1440.012759	0.920023
24.300000	986.878010	0.745696
24.400000	1223.001622	0.466389
24.500000	1188.845724	0.484354
24.600000	1341.021125	0.373897
24.700000	1640.423924	0.276876
24.800000	1599.197295	0.084644
24.900000	1271.369991	0.415103
25.000000	1084.964884	0.473881
25.100000	1453.464614	0.403570
25.200000	1152.037700	-0.099035
25.300000	1053.495073	-0.165228
25.400000	1208.370401	0.143258
25.500000	810.865063	0.213710
25.600000	1915.787469	0.486506
25.700000	1091.628483	-0.100057
25.800000	1610.314194	0.271795
25.900000	969.621338	0.484395
26.000000	1480.265959	0.449153
26.100000	1791.514298	0.628826
26.200000	1441.818822	0.010238
26.300000	1263.239540	0.174182
26.400000	1197.736462	0.540033
26.500000	1399.203059	0.321162
26.600000	1522.605348	0.096836
26.700000	901.036184	0.133939
26.800000	1188.487997	0.349868
26.900000	1351.951247	0.326392
27.000000	612.297573	-0.128902
27.100000	1168.640319	-0.307944
27.200000	2101.626299	0.569699
27.300000	1547.391933	0.323198
27.400000	1042.053001	0.624886
27.500000	1513.662952	0.048148
27.600000	1304.482442	0.183864
27.700000	1332.718459	0.393480
27.800000	1542.779454	0.328442
27.900000	1274.816276	-0.034796
28.000000	1343.916460	0.046809
28.100000	1268.506881	0.001958
28.200000	985.572394	0.616066
28.300000	1244.551474	0.454000
28.400000	1298.287001	0.263218
28.500000	1336.394581	0.039137
28.600000	593.681364	0.640008
28.700000	1196.853921	0.374088
28.800000	1401.392953	0.493870
28.900000	1585.002589	-0.190882
29.000000	1690.811829	-0.184499
29.100000	1459.062485	0.661320
29.200000	933.745333	-0.017491
29.300000	1279.752739	0.484464
29.400000	1070.549762	-0.252340
29.500000	762.403725	-0.048304
29.600000	945.134744	0.487777
29.700000	1507.814544	0.377608
29.800000	1067.375780	0.217855
29.900000	1439.225503	0.176931
30.000000	978.203334	-0.235971
30.100000	1119.705118	0.193484
30.200000	1338.013148	0.262912
30.300000	1178.608238	-0.242867
30.400000	1007.377492	0.141656
30.500000	1101.924164	0.107748
30.600000	1810.830795	0.492221
30.700000	1247.247085	0.211754
30.800000	1064.905499	-0.734574
30.900000	1257.977328	0.355394
31.000000	1491.513151	0.268680
31.100000	1776.681398	0.012153
31.200000	1262.061532	-0.101594
31.300000	1094.062027	-0.290361
31.400000	1554.624913	0.810996
31.500000	1700.389301	0.239196
31.600000	1049.038158	-0.379135
31.700000	577.699659	0.370444
31.800000	1262.270497	0.277168
31.900000	1165.496923	-0.228686
32.000000	1094.235677	0.339430
32.100000	918.234346	-0.036904
32.200000	1460.115239	-0.255854
32.300000	1489.308834	0.790752
32.400000	1087.261287	0.444643
32.500000	968.240524	0.555122
32.600000	1387.919645	0.148944
32.700000	1188.819865	0.369563
32.800000	1707.829204	0.687548
32.900000	1314.141777	-0.069952
33.000000	696.707891	0.133176
33.100000	1064.080845	0.763045
33.200000	1348.254932	0.322707
33.300000	1162.523416	0.282157
33.400000	1279.028408	0.316520
33.500000	1033.253450	0.092047
33.600000	1466.887521	0.719662
33.700000	1368.964818	-0.100726
33.800000	1541.062079	0.087435
33.900000	520.256486	0.443635
34.000000	1057.050308	0.486714
34.100000	1212.953634	0.218098
34.200000	1249.798526	0.676501
34.300000	1581.619911	0.050178
34.400000	775.791937	0.686800
34.500000	1607.022669	-0.202731
34.600000	1072.332517	0.585084
34.700000	1537.320163	0.382991
34.800000	701.854318	0.096230
34.900000	1102.778353	0.027754
35.000000	1192.304150	-0.089044
35.100000	1170.504222	0.300609
35.200000	1178.893921	0.484707
35.300000	1533.792880	0.252466
35.400000	896.870847	0.091340
35.500000	1786.432478	-0.016385
35.600000	1509.817897	-0.014285
35.700000	1539.278504	0.386469
35.800000	653.559973	-0.233566
35.900000	1181.054765	0.498616
36.000000	1250.794894	0.060300
36.100000	1363.349421	0.285701
36.200000	851.933838	0.625017
36.300000	1229.865961	0.779838
36.400000	2043.473810	0.117821
36.500000	1357.965413	0.267175
36.600000	1396.643850	0.255165
36.700000	1066.628316	-0.387347
36.800000	1142.724213	0.205614
36.900000	1116.531799	0.363929
37.000000	1737.156404	0.184453
37.100000	1382.347180	0.207383
37.200000	1215.160055	-0.144463
37.300000	1315.204618	0.263046
37.400000	1787.829503	0.299737
37.500000	1344.345440	0.154785
37.600000	1140.896925	0.231284
37.700000	1446.043350	-0.057769
37.800000	1373.033090	0.067673
37.900000	676.050539	0.500105
38.000000	1465.969239	0.535791
38.100000	822.536504	0.335494
38.200000	1425.799912	0.038168
38.300000	1063.018523	-0.310084
38.400000	1062.692224	0.264446
38.500000	1308.861843	0.430915
38.600000	1275.407481	0.044050
38.700000	691.992105	-0.221362
38.800000	973.861962	0.127832
38.900000	1428.640028	0.176413
39.000000	548.752560	0.792503
39.100000	1299.242954	0.116751
39.200000	1661.664350	-0.047348
39.300000	1438.522455	0.205065
39.400000	1111.821383	-0.035589
39.500000	608.463850	-0.058620
39.600000	1022.040675	0.185541
39.700000	1130.862895	-0.093132
39.800000	1557.180524	0.684251
39.900000	1359.896325	0.092800
40.000000	673.779437	-0.944220
40.100000	1578.690767	0.371763
40.200000	860.172800	0.346753
40.300000	1375.725870	0.297724
40.400000	1050.028453	-0.164166
40.500000	1115.190846	-0.440539
40.600000	871.398120	0.249756
40.700000	1932.722962	0.255883
40.800000	1163.865990	0.424011
40.900000	978.271846	0.649145
41.000000	1228.331287	-0.116484
41.100000	1031.286112	0.048751
41.200000	1613.486258	0.225025
41.300000	963.142983	0.018359
41.400000	824.816046	0.195935
41.500000	1402.955050	0.128128
41.600000	1313.736071	-0.031758
41.700000	1162.451830	0.767349
41.800000	824.059393	-0.259728
41.900000	990.856738	0.688018
42.000000	1914.126935	0.166783
42.100000	1076.819410	-0.327599
42.200000	1120.382347	0.263081
42.300000	1042.137024	0.200621
42.400000	1137.348824	0.482140
42.500000	1760.210924	0.565045
42.600000	1502.556433	0.554187
42.700000	1034.392426	-0.062915
42.800000	1135.110991	0.791594
42.900000	1104.757998	-0.178506
43.000000	1458.681266	0.123423
43.100000	1489.406038	0.460951
43.200000	1015.551286	0.496640
43.300000	1250.979340	0.202539
43.400000	1012.153151	0.340709
43.500000	1365.510431	0.229615
43.600000	1119.482258	0.938678
43.700000	1415.596887	-0.029586
43.800000	1480.289877	0.145180
43.900000	1654.937169	-0.135276
44.000000	1359.913688	0.411969
44.100000	948.643835	0.115944
44.200000	1316.917684	-0.481209
44.300000	561.581447	0.498410
44.400000	1541.731198	0.266681
44.500000	1180.870099	0.102107
44.600000	1231.156084	0.096341
44.700000	991.645110	0.629788
44.800000	1497.928756	0.140719
44.900000	1581.277214	0.541340
45.000000	987.592930	0.401728
45.100000	481.504397	0.018543
45.200000	1807.498960	0.119718
45.300000	709.837325	-0.359435
45.400000	1444.041043	0.479163
45.500000	1481.628343	0.031298
45.600000	1738.754243	-0.186355
45.700000	1402.475439	0.227079
45.800000	1421.779558	0.001996
45.900000	1200.705124	0.266005
46.000000	937.687982	0.692788
46.100000	1299.354524	-0.046277
46.200000	1274.950686	0.280886
46.300000	1953.794077	0.119840
46.400000	1198.678301	-0.086738
46.500000	1207.646707	0.348387
46.600000	870.994882	-0.028100
46.700000	1514.653660	0.032409
46.800000	1410.091530	0.655794
46.900000	1771.093585	-0.410673
47.000000	703.447133	0.032508
47.100000	1438.562038	0.289729
47.200000	881.945335	0.094611
47.300000	1579.365620	0.624682
47.400000	1342.365485	0.155628
47.500000	942.633780	-0.134812
47.600000	682.033031	-0.099560
47.700000	996.731396	1.102255
47.800000	1800.849235	-0.124893
47.900000	1063.292180	-0.288514
48.000000	1097.338144	-0.362309
48.100000	933.954466	0.480313
48.200000	1580.080216	0.756534
48.300000	1346.704205	0.506658
48.400000	592.409676	-0.590116
48.500000	1017.188725	0.257363
48.600000	1865.649316	0.451301
48.700000	1256.872211	0.259858
48.800000	793.146324	-0.166692
48.900000	1013.085367	0.807843
49.000000	1918.937434	0.252248
49.100000	1579.888057	0.007027
49.200000	1335.430704	-0.205690
49.300000	1117.495616	0.126081
49.400000	970.492735	-0.217261
49.500000	1410.875366	0.483284
49.600000	1912.157676	-0.003945
49.700000	1437.373260	-0.132213
49.800000	345.195298	-1.900122
49.900000	986.919209	0.154094
50.000000	1362.548740	0.979101
50.100000	1033.996498	0.036502
50.200000	1115.348973	-0.609861
50.300000	795.576672	-0.929870
50.400000	999.524824	0.285596
50.500000	1209.030907	0.256570
50.600000	1317.996401	-0.247332
50.700000	789.393357	0.218502
50.800000	1180.753459	0.863324
50.900000	2071.903267	0.029392
51.000000	569.858215	0.871857
51.100000	850.557392	0.821709
51.200000	1925.967010	0.540269
51.300000	1517.702719	-0.256486
51.400000	1152.557907	0.426395
51.500000	1573.106659	0.012673
51.600000	647.532379	1.163327
51.700000	1686.736084	0.159497
51.800000	1906.673342	-0.068122
51.900000	1835.477463	0.241483
52.000000	1379.905141	-0.131344
52.100000	549.735208	-0.456069
52.200000	1041.116828	0.611068
52.300000	1924.119879	0.250553
52.400000	974.554870	-0.067733
52.500000	1055.095273	-0.460211
52.600000	522.958539	0.334945
52.700000	2044.364698	0.389047
52.800000	1785.233961	-0.279328
52.900000	935.968397	0.218671
53.000000	1419.934728	0.344917
53.100000	1928.627125	0.114579
53.200000	785.399191	-0.377152
53.300000	1218.663308	0.620503
53.400000	1409.705482	0.228508
53.500000	621.403575	0.796268
53.600000	2103.296344	0.212808
53.700000	915.329298	0.561631
53.800000	1624.807219	0.285838
53.900000	712.527963	-0.670420
54.000000	993.657444	0.257701
54.100000	2335.110938	-0.027481
54.200000	1873.471254	-0.031197
54.300000	864.521549	0.160865
54.400000	1123.978895	0.367494
54.500000	1563.036606	0.801502
54.600000	2117.398791	0.066354
54.700000	1584.343887	-0.785569
54.800000	1304.349817	1.017965
54.900000	1336.332348	0.182146
55.000000	1670.993816	-0.191913
55.100000	1074.094816	0.029058
55.200000	1417.727472	-0.080620
55.300000	593.288729	0.465326
55.400000	1435.692203	0.044673
55.500000	1659.930794	-0.026117
55.600000	913.416496	-0.429197
55.700000	2201.382544	0.314706
55.800000	1456.564673	-0.000248
55.900000	1408.746624	0.154772
56.000000	1437.027887	-0.253728
56.100000	608.908741	0.717650
56.200000	1044.926287	0.148026
56.300000	884.528888	0.185371
56.400000	1429.980542	0.055634
56.500000	1256.503577	0.001825
56.600000	1173.550437	-0.027617
56.700000	1997.277212	0.638967
56.800000	1486.229764	0.001045
56.900000	1564.995847	-0.442568
57.000000	1046.228174	0.529788
57.100000	1456.408155	0.722083
57.200000	950.991192	-0.081111
57.300000	1803.448988	-0.400436
57.400000	1260.705832	0.817636
57.500000	1433.817073	0.406614
57.600000	1300.417272	0.223457
57.700000	1688.742179	-0.398666
57.800000	890.446327	-0.295427
57.900000	1303.434043	0.401095
58.000000	1949.532755	0.041255
58.100000	1205.884219	0.016904
58.200000	1113.440427	0.940561
58.300000	1725.129200	0.064561
58.400000	660.106817	0.603187
58.500000	1595.618377	0.181951
58.600000	842.282695	0.090485
58.700000	1362.953796	0.257471
58.800000	791.373671	-0.793593
58.900000	1064.806501	0.207450
59.000000	1255.622643	-0.086114
59.100000	1307.104536	-0.168753
59.200000	951.385755	0.632344
59.300000	1704.915674	0.693278
59.400000	1359.413401	0.425013
59.500000	1184.765004	-0.474380
59.600000	1185.327300	-0.467266
59.700000	785.364242	0.900903
59.800000	1795.708029	-0.045182
59.900000	1157.842044	-0.292922
60.000000	565.040339	0.585246
60.100000	758.798916	0.011123
60.200000	1411.501716	-0.083575
60.300000	1813.522132	0.339827
60.400000	1664.274564	-0.025097
60.500000	926.140059	-0.635921
60.600000	1520.007205	0.263478
60.700000	792.117692	-0.134260
60.800000	1785.311166	0.811713
60.900000	1433.046554	0.104610
61.000000	726.819178	0.579581
61.100000	768.997373	0.388341
61.200000	1302.638031	0.107745
61.300000	1109.650055	0.337951
61.400000	1557.824227	-0.512577
61.500000	1112.053360	0.587067
61.600000	2214.644444	0.307772
61.700000	1606.927499	-0.232911
61.800000	464.827201	0.234265
61.900000	1339.342971	1.136057
62.000000	1422.021062	-0.050807
62.100000	1967.360642	-0.011312
62.200000	1442.382552	0.310437
62.300000	886.857547	0.161287
62.400000	1459.863876	0.103409
62.500000	1107.921201	-0.174122
62.600000	995.744314	0.196054
62.700000	1221.795810	-0.259863
62.800000	959.974947	-0.911907
62.900000	1695.652836	0.811090
63.000000	1409.522779	0.091469
63.100000	1619.980738	0.052742
63.200000	2058.568450	0.741975
63.300000	1102.166222	-0.017623
63.400000	678.439688	1.192458
63.500000	1426.137948	-0.206531
63.600000	243.253303	0.950563
63.700000	711.940018	0.813836
63.800000	1378.658755	-0.153641
63.900000	1848.893271	-0.425158
64.000000	480.806325	0.528786
64.100000	977.604998	0.616686
64.200000	1279.972166	0.918344
64.300000	1842.822438	-0.155545
64.400000	1560.667107	-0.453255
64.500000	803.296142	0.829784
64.600000	976.771647	-0.437032
64.700000	1342.819280	0.129183
64.800000	1142.511442	0.184359
64.900000	973.605546	0.003550
65.000000	1119.967327	-0.218001
65.100000	1024.728634	-0.396139
65.200000	1123.167322	-0.447781
65.300000	1073.669992	0.157192
65.400000	2684.606793	-0.016335
65.500000	894.625389	0.323073
65.600000	511.913740	-0.280469
65.700000	1192.745698	0.213709
65.800000	1232.000081	0.054392
65.900000	860.279007	0.530787
66.000000	1526.535229	0.196229
66.100000	1165.803231	-0.515413
66.200000	914.087980	-0.891870
66.300000	582.196137	0.971790
66.400000	1346.665170	0.787456
66.500000	1954.824876	-0.069509
66.600000	1188.621059	-0.088901
66.700000	983.240705	0.023267
66.800000	1839.637934	0.605229
66.900000	1286.149498	-0.071953
67.000000	1020.358240	0.822841
67.100000	1753.251810	0.251281
67.200000	1782.131107	0.102486
67.300000	1241.216620	-0.334026
67.400000	517.714089	0.557043
67.500000	859.032868	1.026015
67.600000	2401.310271	-0.013439
67.700000	1284.603960	0.137438
67.800000	1083.533694	0.142291
67.900000	1362.039092	0.418684
68.000000	1583.114097	-0.431496
68.100000	629.889321	-0.014718
68.200000	865.500656	0.739164
68.300000	1674.702468	0.611982
68.400000	735.975373	0.195104
68.500000	299.634449	0.413993
68.600000	1527.035911	-0.159969
68.700000	1619.594541	0.470440
68.800000	1025.473780	-0.277827
68.900000	1161.857802	-0.536746
69.000000	1267.715368	-0.410241
69.100000	940.920386	0.361411
69.200000	840.021035	0.255370
69.300000	1276.858548	0.664067
69.400000	894.657766	0.230958
69.500000	2612.582377	-0.158246
69.600000	525.030727	0.724665
69.700000	1111.751028	0.109175
69.800000	664.870805	0.579682
69.900000	2051.522611	-0.142188
70.000000	604.605932	-1.225552
70.100000	1608.448105	0.193795
70.200000	2430.912788	-0.011036
70.300000	869.788600	0.130553
70.400000	313.587266	1.739403
70.500000	2073.454038	0.173295
70.600000	1641.864623	0.445349
70.700000	1135.078687	-0.470865
70.800000	1510.610362	-0.085649
70.900000	1381.087503	-0.298345
71.000000	793.390975	-0.302321
71.100000	678.693219	0.495433
71.200000	1093.390235	0.152956
71.300000	1096.974720	0.052420
71.400000	1767.666575	0.047017
71.500000	501.324475	-0.667853
71.600000	2260.279313	0.459606
71.700000	1189.170669	0.066661
71.800000	1628.037067	-0.028523
71.900000	67.177163	2.937669
72.000000	1538.689190	0.626318
72.100000	1174.117464	0.767769
72.200000	1444.687856	0.237177
72.300000	1193.808946	-0.289513
72.400000	1601.640173	0.195486
72.500000	1282.069532	-0.325092
72.600000	1208.361856	-0.143578
72.700000	1711.769426	-0.062528
72.800000	1039.723133	0.310620
72.900000	1320.905984	0.866738
73.000000	1058.134381	-0.193848
73.100000	1246.894749	-0.684189
73.200000	1123.529645	0.963138
73.300000	1374.945452	-0.084748
73.400000	879.959677	0.258454
73.500000	2322.030260	0.444681
73.600000	1407.909684	-0.593643
73.700000	960.916880	-0.770618
73.800000	766.073975	0.260638
73.900000	1025.970076	0.524657
74.000000	1953.035182	-0.067899
74.100000	1497.781513	-0.194124
74.200000	1025.194629	0.748664
74.300000	2180.869386	0.193807
74.400000	1046.971467	-0.113327
74.500000	322.783655	-0.571263
74.600000	1764.197740	0.014960
74.700000	655.949352	-0.551411
74.800000	1116.781195	-0.118837
74.900000	506.631498	-1.532263
75.000000	2221.131726	0.580080
75.100000	1753.095786	0.171378
75.200000	1682.612233	-0.615560
75.300000	1299.175585	0.253800
75.400000	687.790339	-0.342534
75.500000	671.842975	-0.560810
75.600000	1212.060067	0.155833
75.700000	2183.368392	0.261681
75.800000	1500.678812	-0.354725
75.900000	503.172374	-0.008531
76.000000	749.645488	0.496727
76.100000	1860.514658	0.426177
76.200000	1746.053035	-0.569671
76.300000	908.071471	0.152074
76.400000	2252.219814	-0.273268
76.500000	1831.247979	0.051808
76.600000	725.595778	0.174873
76.700000	1892.094654	0.522292
76.800000	604.258201	0.855844
76.900000	1971.223751	0.631556
77.000000	1336.588369	-0.886542
77.100000	1096.172030	0.624816
77.200000	1066.404982	-0.009229
77.300000	828.625378	-0.122061
77.400000	1793.944982	0.520299
77.500000	943.503950	-0.737572
77.600000	1399.200945	0.190082
77.700000	953.047760	0.784641
77.800000	142.791246	0.581315
77.900000	1887.100291	0.347250
78.000000	1677.899191	0.255871
78.100000	1005.618392	-0.601247
78.200000	1549.615392	-0.012993
78.300000	1014.688989	0.816136
78.400000	896.681004	0.774164
78.500000	1282.658349	-0.286918
78.600000	924.466993	-0.283368
78.700000	1068.221172	0.006748
78.800000	1718.764831	-0.265055
78.900000	1922.803786	0.094112
79.000000	1363.584227	0.683370
79.100000	1059.608673	0.001480
79.200000	986.529963	0.107022
79.300000	960.456382	0.222883
79.400000	879.656544	0.234348
79.500000	1671.107805	0.701853
79.600000	757.677460	-0.372040
79.700000	1198.477159	0.125999
79.800000	2437.490759	0.097882
79.900000	1154.847005	-0.469815
80.000000	1227.448677	-0.440033
80.100000	1640.974633	-0.117279
80.200000	771.362797	0.194874
80.300000	1706.411936	-0.084473
80.400000	549.555760	-0.018179
80.500000	1405.287739	0.144443
80.600000	1977.544332	0.169557
80.700000	1194.755419	-0.826816
80.800000	2256.190143	0.584519
80.900000	872.787616	-0.619898
81.000000	841.021857	0.133578
81.100000	1574.860402	-0.785394
81.200000	760.290009	0.191501
81.300000	1503.072376	0.198388
81.400000	939.812820	-0.094241
81.500000	1835.747875	0.392529
81.600000	1663.567495	0.243913
81.700000	1041.053393	0.066562
81.800000	2080.235790	0.930431
81.900000	1212.132535	0.023026
82.000000	446.571378	-0.264110
82.100000	911.610304	0.394968
82.200000	1739.628369	0.322981
82.300000	493.759942	0.398057
82.400000	1661.935575	-0.174208
82.500000	1755.058604	0.571651
82.600000	1409.752581	0.057112
82.700000	1596.599930	-0.078839
82.800000	1331.013286	-0.134947
82.900000	1099.106001	-0.190099
83.000000	1802.995470	-0.786939
83.100000	1923.172632	1.580204
83.200000	2402.184177	0.121320
83.300000	617.664972	-1.220978
83.400000	983.262294	0.249889
83.500000	925.807746	-0.971744
83.600000	1302.169635	0.158372
83.700000	2027.019325	0.036903
83.800000	1018.585578	-0.269196
83.900000	1002.793117	0.564031
84.000000	1366.157728	0.130463
84.100000	244.425080	1.868816
84.200000	1072.767100	0.283195
84.300000	694.560730	-0.127402
84.400000	1619.213210	0.122916
84.500000	1270.086997	-0.253297
84.600000	969.602094	0.964610
84.700000	1710.399172	-0.596201
84.800000	1564.373929	-0.891182
84.900000	1195.548466	0.824220
85.000000	914.080399	-0.024421
85.100000	2426.531258	-0.153537
85.200000	762.440517	0.165726
85.300000	2208.918460	0.395404
85.400000	1001.990675	0.211675
85.500000	1878.882289	0.315338
85.600000	1225.466557	-0.339259
85.700000	1056.146284	-0.098388
85.800000	558.592412	-0.400430
85.900000	1151.228943	0.856128
86.000000	1534.734400	0.128085
86.100000	2320.877261	0.181142
86.200000	434.253842	-0.007841
86.300000	2013.008201	0.229442
86.400000	676.614908	0.603688
86.500000	903.082135	-0.206422
86.600000	1642.561799	-0.513539
86.700000	1149.913360	-0.382041
86.800000	1241.852715	1.026080
86.900000	1134.217105	-0.089116
87.000000	1744.929064	0.866140
87.100000	761.283227	-0.034858
87.200000	617.901976	0.239978
87.300000	2255.553104	0.179647
87.400000	1314.717827	-0.306268
87.500000	1845.556793	0.058116
87.600000	627.130232	0.870822
87.700000	1237.359068	0.288768
87.800000	943.326903	0.434434
87.900000	1003.803453	-0.628043
88.000000	1065.720077	0.982418
88.100000	1967.564890	0.040855
88.200000	2105.040654	0.237676
88.300000	1081.262457	-0.244912
88.400000	1701.507997	-0.778460
88.500000	392.272612	-0.252705
88.600000	1590.045321	-0.619304
88.700000	1289.801038	0.196704
88.800000	1425.079263	0.385487
88.900000	991.011579	-0.130852
89.000000	1887.230258	-0.130479
89.100000	887.204516	0.281380
89.200000	1760.986647	-0.420447
89.300000	505.023706	-0.020075
89.400000	479.799600	0.001351
89.500000	991.227719	-0.673684
89.600000	863.256416	-0.453476
89.700000	797.782051	-0.000768
89.800000	1273.349235	-0.335730
89.900000	1929.358975	0.178976
90.000000	1972.403411	0.284293
90.100000	737.377036	-0.024971
90.200000	1783.640017	0.255494
90.300000	1247.591741	0.316949
90.400000	1747.676642	0.441264
90.500000	2186.451827	-0.530415
90.600000	875.389101	0.541915
90.700000	779.615684	0.623885
90.800000	1457.490678	-0.592770
90.900000	2078.053499	0.624837
91.000000	1275.554795	-0.063689
91.100000	2130.630156	0.012397
91.200000	1655.895868	-0.023268
91.300000	26.811478	0.390528
91.400000	1317.225488	0.774527
91.500000	1218.069586	-0.008205
91.600000	1572.650136	-0.014751
91.700000	1339.474600	0.137862
91.800000	2016.924123	-0.018421
91.900000	1036.713258	0.170777
92.000000	922.050793	-0.146477
92.100000	656.811402	-0.430668
92.200000	1224.776168	-0.478682
92.300000	1889.995172	0.261340
92.400000	610.979290	0.222639
92.500000	1305.782955	0.478063
92.600000	1268.667228	0.665252
92.700000	1260.663179	0.479401
92.800000	1229.240603	0.256792
92.900000	1159.198116	-0.710445
93.000000	463.708569	0.983757
93.100000	686.255704	-0.603920
93.200000	1883.687855	0.107081
93.300000	2170.162865	0.292949
93.400000	501.065206	-1.771240
93.500000	2253.928046	0.172510
93.600000	759.073433	1.153278
93.700000	1564.936989	-0.063992
93.800000	2194.697002	0.151768
93.900000	1526.845734	-0.350960
94.000000	1637.691848	-0.902019
94.100000	1971.812501	0.023697
94.200000	1885.848396	0.513622
94.300000	579.608969	0.236423
94.400000	363.894812	0.641158
94.500000	1507.449630	0.447160
94.600000	2445.673483	-0.609230
94.700000	1208.280370	-0.343960
94.800000	2511.581230	-0.041822
94.900000	1314.700902	-0.334955
95.000000	2297.884397	-0.264312
95.100000	1168.694733	0.523748
95.200000	1780.380606	0.522982
95.300000	787.706833	-0.637724
95.400000	1812.074986	0.341158
95.500000	995.511985	1.243441
95.600000	2867.101583	-0.142491
95.700000	561.653603	0.865004
95.800000	942.206307	-0.522097
95.900000	1025.289528	-0.103586
96.000000	1332.768026	0.655331
96.100000	1840.464963	-0.114695
96.200000	647.677131	0.131589
96.300000	1238.922423	0.571413
96.400000	1403.441596	-0.070461
96.500000	1199.220713	0.163566
96.600000	771.915767	0.450281
96.700000	1700.165054	0.293370
96.800000	483.741741	0.326079
96.900000	1828.146633	0.116300
97.000000	785.284452	-1.272309
97.100000	1261.511145	0.082441
97.200000	418.852376	1.718587
97.300000	1562.313901	0.292511
97.400000	2842.175336	0.410734
97.500000	730.302652	-0.409688
97.600000	387.286700	0.364934
97.700000	1488.277677	-0.018288
97.800000	1351.667790	0.802949
97.900000	589.310509	0.621772
98.000000	1491.685696	0.201851
98.100000	962.888225	1.910733
98.200000	1430.731091	-0.689793
98.300000	2431.296394	-0.139827
98.400000	1441.374347	0.312473
98.500000	945.016912	-1.595655
98.600000	2257.342176	0.017314
98.700000	1503.264375	-0.207722
98.800000	376.373387	-0.589439
98.900000	781.029747	0.781779
99.000000	2313.591766	0.293940
99.100000	1000.402364	-0.450505
99.200000	1696.470247	-0.168584
99.300000	1840.277728	0.107731
99.400000	372.960720	-1.290119
99.500000	1368.366445	0.382508
99.600000	1503.492989	-0.637478
99.700000	2114.309348	0.461950
99.800000	1308.160958	-0.954159
99.900000	1066.309003	0.784313
100.000000	1045.799837	0.523767
100.100000	1794.244967	-0.385246
100.200000	1537.096028	0.528163
100.300000	2341.770559	0.393923
100.400000	1518.848214	-0.226683
100.500000	1226.895689	0.009398
100.600000	716.670865	-1.669336
100.700000	1836.246471	0.975166
100.800000	1472.345356	0.094909
100.900000	1323.641974	-0.446214
101.000000	936.155473	0.884392
101.100000	1122.562892	-0.635142
101.200000	2422.407830	0.486131
101.300000	1551.639711	0.324681
101.400000	1406.487998	0.121889
101.500000	972.757933	-1.061260
101.600000	1408.264680	0.315828
101.700000	1588.991573	1.094563
101.800000	927.804851	0.083864
101.900000	1682.563243	-0.742572
102.000000	829.190532	1.269313
102.100000	1656.526508	-0.281143
102.200000	1869.387619	-0.094982
102.300000	1441.692899	1.446183
102.400000	1532.231651	-0.892467
102.500000	1071.577230	-0.331906
102.600000	1249.146108	0.621808
102.700000	736.326031	-0.696572
102.800000	1110.711885	-0.643010
102.900000	1416.091470	0.980514
103.000000	514.305199	1.324030
103.100000	2273.999222	0.400306
103.200000	2209.319640	-1.120199
103.300000	427.122040	-0.710716
103.400000	2006.397842	0.077957
103.500000	1394.032958	-0.007604
103.600000	1409.760589	0.607891
103.700000	1470.764913	-0.142391
103.800000	1652.059261	0.492154
103.900000	1253.603136	0.318356
104.000000	1512.890536	-0.385445
104.100000	1543.967913	0.645500
104.200000	1473.672941	-0.394995
104.300000	1157.656270	-0.936205
104.400000	1618.920657	0.481529
104.500000	1584.928141	-0.078130
104.600000	1075.312505	0.285356
104.700000	1839.074992	-0.623539
104.800000	2351.511608	0.746492
104.900000	2032.509923	0.214348
105.000000	1342.662841	-0.833502
105.100000	1295.634477	-1.504293
105.200000	2561.432967	0.337779
105.300000	1680.690367	0.152926
105.400000	319.842811	-0.169097
105.500000	1465.167022	1.256970
105.600000	1105.007847	-0.248543
105.700000	1515.503324	0.123106
105.800000	1975.529577	-0.141467
105.900000	1052.350428	0.948870
106.000000	1061.691351	-0.414858
106.100000	1351.233123	0.881631
106.200000	1174.980327	0.534793
106.300000	1573.162420	0.384642
106.400000	383.547111	0.391748
106.500000	1949.042007	1.065030
106.600000	2738.484498	-0.638102
106.700000	2403.607235	0.518415
106.800000	1918.175647	0.009862
106.900000	961.477182	-2.666510
107.000000	1444.259082	0.295108
107.100000	1846.359651	0.066575
107.200000	644.256367	-0.070815
107.300000	1911.437789	-0.713309
107.400000	1138.850977	1.567937
107.500000	2088.997025	-0.444379
107.600000	1937.361928	-0.344993
107.700000	1055.017443	0.594400
107.800000	1136.776980	0.942985
107.900000	1421.074047	-0.953998
108.000000	863.696856	-0.717716
108.100000	1501.285820	-1.014460
108.200000	168.880926	1.236683
108.300000	1986.424020	-0.038162
108.400000	1795.669825	0.164558
108.500000	1404.983650	-0.281071
108.600000	1997.961693	0.712911
108.700000	1186.119724	-0.992839
108.800000	676.208051	0.414026
108.900000	2081.827795	0.442238
109.000000	1821.780007	-0.185671
109.100000	2327.237247	0.527276
109.200000	775.125291	0.314793
109.300000	950.226449	0.080820
109.400000	2380.997368	0.195106
109.500000	1387.577348	-0.751309
109.600000	2378.448973	0.412080
109.700000	868.653819	-0.631800
109.800000	1121.272893	-0.289236
109.900000	2038.811155	-0.238040
110.000000	1667.002616	0.292557
110.100000	1170.528800	0.989798
110.200000	1679.957135	-0.892544
110.300000	619.757853	0.433854
110.400000	1575.929977	0.491025
110.500000	1096.060807	-0.273492
110.600000	1382.303063	0.269310
110.700000	1548.294906	-0.200800
110.800000	286.255717	-1.116787
110.900000	1087.845512	0.134613
111.000000	990.259313	1.412751
111.100000	282.040675	1.146306
111.200000	1612.271613	0.093413
111.300000	1316.717066	0.544160
111.400000	1752.760854	-0.029578
111.500000	977.664546	0.855721
111.600000	1635.971750	0.097696
111.700000	1266.253452	-0.301912
111.800000	2016.248443	-0.426463
111.900000	1821.403855	1.533143
112.000000	1634.842252	-0.012540
112.100000	1650.019918	-0.538223
112.200000	1789.439483	0.169908
112.300000	1318.006722	0.482912
112.400000	1702.439039	-0.442506
112.500000	419.184094	1.495641
112.600000	2099.559323	-0.092063
112.700000	1235.236019	0.513287
112.800000	2102.214249	0.126976
112.900000	544.313783	1.752937
113.000000	1267.605389	-0.172485
113.100000	1984.140825	-0.640989
113.200000	1102.308132	-0.028937
113.300000	2270.553751	0.275265
113.400000	637.131870	0.195296
113.500000	1358.922380	-0.275277
113.600000	1777.421046	-0.457967
113.700000	978.596731	0.576850
113.800000	1007.518229	0.044710
113.900000	1334.536598	-0.455259
114.000000	519.157971	-0.360365
114.100000	1987.988139	0.092905
114.200000	1776.489781	0.436795
114.300000	1542.369398	0.128081
114.400000	652.231335	2.518922
114.500000	2035.974325	-0.293994
114.600000	792.618827	-0.519239
114.700000	1907.320450	0.745564
114.800000	858.327331	0.301188
114.900000	1670.392861	0.055737
115.000000	2371.159384	0.054223
115.100000	1493.746250	0.576658
115.200000	1055.991631	0.872171
115.300000	804.240856	-1.174813
115.400000	1665.823305	-0.330003
115.500000	1530.941779	-0.028517
115.600000	1297.388687	0.713218
115.700000	1805.700605	0.114812
115.800000	1279.685370	0.393700
115.900000	507.916088	-0.812056
116.000000	2342.891295	0.122564
116.100000	638.039862	-0.265696
116.200000	1070.695022	-1.062314
116.300000	982.220729	1.549876
116.400000	1925.293721	-0.206572
116.500000	1479.423227	-0.376047
116.600000	1490.191971	1.734667
116.700000	1323.778775	-0.659850
116.800000	515.471291	-1.441232
116.900000	1830.898159	-0.282827
117.000000	1599.676311	0.535510
117.100000	671.853588	0.399739
117.200000	1444.873461	-0.292036
117.300000	1631.180180	0.114704
117.400000	100.087177	0.140935
117.500000	472.443420	0.763076
117.600000	1172.235060	0.029636
117.700000	1371.765127	-0.115415
117.800000	1271.216804	0.019193
117.900000	1664.277646	0.168063
118.000000	426.545101	-0.360766
118.100000	717.676840	1.341022
118.200000	1764.102292	-0.476438
118.300000	2005.379291	0.119119
118.400000	1405.109886	-0.036769
118.500000	835.728185	2.261919
118.600000	1624.076106	-0.259916
118.700000	1568.412665	0.020161
118.800000	1766.374891	0.499623
118.900000	542.091707	0.679050
119.000000	448.583367	0.261336
119.100000	889.015034	0.824661
119.200000	2289.404082	-0.008760
119.300000	1679.902323	-0.175444
119.400000	1377.769335	0.990419
119.500000	1273.876735	-0.033509
119.600000	1363.026886	0.179260
119.700000	726.291189	0.262182
119.800000	1631.940787	0.327806
119.900000	1198.242733	-0.580720
120.000000	621.266474	-0.863149
120.100000	1730.707715	-0.153597
120.200000	1672.586950	1.113192
120.300000	658.017025	1.331627
120.400000	961.510112	2.091444
120.500000	2495.354105	-0.255759
120.600000	916.469523	0.070125
120.700000	716.362991	0.165344
120.800000	532.794931	0.588011
120.900000	560.916521	1.156701
121.000000	1794.766477	-0.398577
121.100000	902.858644	0.536151
121.200000	1879.130909	0.570933
121.300000	983.083647	0.306041
121.400000	302.496958	0.083554
121.500000	1194.824912	-0.071287
121.600000	1457.854508	0.057693
121.700000	1842.260177	0.445196
121.800000	1170.270243	-0.388609
121.900000	908.280667	-1.062539
122.000000	2723.222994	-0.185631
122.100000	1265.585689	0.446602
122.200000	787.734159	-0.190241
122.300000	903.475244	-0.201049
122.400000	2160.686717	-0.505527
122.500000	777.832697	0.797972
122.600000	1561.758980	0.181156
122.700000	1297.581248	-0.322577
122.800000	1640.211100	-1.214050
122.900000	1374.842075	0.864814
123.000000	1420.458186	0.575801
123.100000	1679.924491	0.259941
123.200000	1273.768656	-0.867173
123.300000	1995.607937	0.028618
123.400000	2497.439564	-0.234088
123.500000	2008.809709	0.293195
123.600000	1818.473647	0.187250
123.700000	1154.305717	-0.233030
123.800000	1052.777873	-0.242263
123.900000	2052.609251	0.357949
124.000000	190.047692	1.264809
124.100000	2090.454417	-0.123286
124.200000	2002.407836	-0.219799
124.300000	2215.703358	0.119196
124.400000	2175.359769	0.233326
124.500000	638.310439	0.279775
124.600000	1644.263072	0.575913
124.700000	1854.476051	-0.466099
124.800000	1497.967983	0.250063
124.900000	1964.484609	-0.389390
125.000000	1419.826542	0.530730
125.100000	633.410909	2.510477
125.200000	2346.209077	0.143719
125.300000	1797.453953	0.082075
125.400000	1352.765414	0.861164
125.500000	954.274377	-1.347886
125.600000	1201.191143	-0.406511
125.700000	1942.570743	0.010576
125.800000	1242.166583	0.236053
125.900000	919.628243	-1.463316
126.000000	1136.442266	0.492708
126.100000	2454.679940	0.136258
126.200000	1029.571041	-0.442463
126.300000	1000.748645	0.606087
126.400000	256.971419	2.312153
126.500000	1646.503809	-0.357704
126.600000	816.739540	-1.006425
126.700000	1567.215307	0.768062
126.800000	1374.372735	0.847621
126.900000	1587.414636	1.740870
127.000000	1121.070186	-0.715861
127.100000	2007.601767	-0.412862
127.200000	1254.469152	-0.494449
127.300000	654.805702	-0.490400
127.400000	1305.919040	0.469651
127.500000	2094.159648	-0.106592
127.600000	901.514744	-0.545401
127.700000	432.465466	0.584664
127.800000	1068.697441	0.517234
127.900000	802.478623	-0.338885
128.000000	2363.531788	0.314064
128.100000	1356.505582	-0.661534
128.200000	1950.786439	0.648851
128.300000	1103.850130	-0.412283
128.400000	2652.972451	-0.182761
128.500000	749.150498	-0.277471
128.600000	2067.519483	0.161426
128.700000	1160.779215	1.003741
128.800000	311.627763	-0.523235
128.900000	2108.430648	-0.622951
129.000000	1289.484271	0.128398
129.100000	1002.571469	0.236238
129.200000	581.428166	0.103878
129.300000	1320.616088	0.092832
129.400000	1359.433051	-0.873370
129.500000	1047.219194	1.720000
129.600000	869.644857	-0.112368
129.700000	1563.081842	0.212505
129.800000	1021.153737	-0.058926
129.900000	1281.159835	-0.201184
130.000000	1161.398908	0.476621
130.100000	2104.996001	0.948987
130.200000	1888.625283	-0.844353
130.300000	1046.177997	0.605414
130.400000	1514.387327	-0.206243
130.500000	1612.850529	0.701250
130.600000	967.404006	0.574239
130.700000	1554.207359	-0.743218
130.800000	1027.592907	0.394781
130.900000	1298.284520	0.627673
131.000000	1166.823923	0.638314
131.100000	1788.684861	-0.222872
131.200000	1468.622748	0.273060
131.300000	1695.686830	-0.550357
131.400000	1689.900013	1.171932
131.500000	1432.098822	-0.955610
131.600000	1111.222273	0.654169
131.700000	1470.166917	-0.041064
131.800000	1351.080210	-0.151869
131.900000	1278.507846	0.451016
132.000000	734.864504	-0.561281
132.100000	2041.220116	-1.593643
132.200000	2341.545898	0.231386
132.300000	1758.817349	0.016292
132.400000	1000.684126	0.567764
132.500000	1496.486060	-1.155295
132.600000	1420.861726	-0.409479
132.700000	1518.348418	0.482763
132.800000	1629.276897	-0.426676
132.900000	1266.846505	0.393369
133.000000	1184.830029	-0.030927
133.100000	1080.013678	-0.150346
133.200000	1397.367444	0.086925
133.300000	1502.734306	0.508460
133.400000	1776.075831	-0.364449
133.500000	3022.678408	0.572134
133.600000	1061.405154	-0.847910
133.700000	1203.691032	0.617408
133.800000	1640.474967	0.574216
133.900000	1397.002557	-0.245185
134.000000	1643.800539	-0.174201
134.100000	2724.449559	0.026825
134.200000	426.342403	-0.614048
134.300000	631.235753	3.088562
134.400000	857.368404	0.383335
134.500000	2453.854568	-0.016617
134.600000	1182.099881	0.022184
134.700000	1553.045565	-0.148319
134.800000	792.454997	-1.029625
134.900000	975.654896	-0.645163
135.000000	343.059910	-0.759933
135.100000	1663.106584	0.198140
135.200000	1007.882537	-0.411979
135.300000	376.514841	-1.829265
135.400000	1500.445171	-0.665074
135.500000	917.476383	-0.060867
135.600000	1882.491128	0.575296
135.700000	182.500176	-2.905022
135.800000	1993.621650	-0.284087
135.900000	1124.029391	-0.478974
136.000000	737.748557	-0.506974
136.100000	1302.921221	0.050489
136.200000	1208.639040	0.397994
136.300000	1385.800456	0.408276
136.400000	2480.010194	-0.212279
136.500000	872.645239	1.949214
136.600000	870.889792	0.208092
136.700000	2007.848432	-0.210912
136.800000	1891.595201	0.668389
136.900000	2373.651637	-0.585167
137.000000	878.789640	-0.463032
137.100000	626.243753	0.555596
137.200000	1361.130459	1.107456
137.300000	1632.936059	-0.218446
137.400000	945.607025	-0.094864
137.500000	1182.212654	-0.425630
137.600000	2121.734587	-0.947119
137.700000	2207.165033	0.089503
137.800000	1604.157119	0.109439
137.900000	1736.735121	-0.242395
138.000000	985.453117	1.321862
138.100000	512.718398	0.152193
138.200000	757.211689	0.671495
138.300000	2041.933212	-0.635485
138.400000	613.494510	0.806667
138.500000	1565.891066	0.186579
138.600000	911.913628	0.638055
138.700000	1676.791030	0.412184
138.800000	874.901971	-0.420241
138.900000	916.292301	0.790061
139.000000	2477.520889	0.444557
139.100000	557.217149	-0.648420
139.200000	1482.770488	0.129938
139.300000	778.705130	0.492686
139.400000	1538.066276	0.288941
139.500000	903.560778	0.217165
139.600000	2009.918909	0.033166
139.700000	2202.882015	0.395825
139.800000	1417.145505	0.222890
139.900000	441.933327	0.740852
140.000000	3046.704900	0.306535
140.100000	2108.030483	0.351373
140.200000	612.830546	-0.773317
140.300000	1784.788032	0.722626
140.400000	1369.179292	-0.594831
140.500000	1268.373198	-1.471132
140.600000	1973.004291	-0.519647
140.700000	976.362962	-0.089407
140.800000	1111.339117	-1.130053
140.900000	1150.895091	0.359914
141.000000	1505.852055	-0.324045
141.100000	1527.095715	0.552323
141.200000	2206.194628	-0.863386
141.300000	1800.014997	0.025524
141.400000	1354.637094	-0.436457
141.500000	1156.108791	-0.653072
141.600000	1426.284114	0.857209
141.700000	849.187442	-0.701137
141.800000	1447.170275	-0.607438
141.900000	1689.976145	0.805444
142.000000	1123.655564	0.307902
142.100000	1488.800843	0.470734
142.200000	2241.682329	-0.038956
142.300000	1245.698438	0.219789
142.400000	1757.236284	-0.203963
142.500000	1163.216400	0.357487
142.600000	1779.044658	0.400025
142.700000	2297.286060	-0.249488
142.800000	2201.370972	-0.334194
142.900000	682.039760	-0.317720
143.000000	2134.318207	0.756591
143.100000	1452.542761	-0.420970
143.200000	2204.906939	-0.089848
143.300000	1339.337783	-0.153657
143.400000	1234.104805	-0.122257
143.500000	1168.684962	0.334407
143.600000	2094.479646	-0.300716
143.700000	728.979395	0.880464
143.800000	1047.204686	0.329864
143.900000	2303.084702	0.197502
144.000000	940.339108	1.575749
144.100000	2035.830809	-0.343942
144.200000	1239.527991	-0.551302
144.300000	817.847248	0.875288
144.400000	863.679676	-0.173216
144.500000	1904.711384	-0.126507
144.600000	1334.181843	-0.767267
144.700000	980.959725	2.846943
144.800000	1375.968070	0.907795
144.900000	1314.784952	0.571496
145.000000	2098.246035	-0.993961
145.100000	1053.180197	0.160791
145.200000	1255.071889	1.233679
145.300000	626.718150	-1.315868
145.400000	1175.303706	0.791843
145.500000	589.748283	-0.571952
145.600000	1245.586610	-1.085971
145.700000	1436.338615	-0.313554
145.800000	1638.213663	-0.174895
145.900000	1039.845608	0.523525
146.000000	675.665631	-0.413137
146.100000	1298.633100	0.790178
146.200000	855.635378	0.778130
146.300000	1829.705158	-1.100921
146.400000	2159.487305	0.958546
146.500000	1187.118373	-0.177835
146.600000	1274.313548	-0.226561
146.700000	1263.511376	0.006725
146.800000	1494.101972	-1.194352
146.900000	1796.782230	0.267892
147.000000	1078.944447	0.155321
147.100000	1554.490198	0.054688
147.200000	1068.333059	-0.495139
147.300000	480.469109	-1.251435
147.400000	1207.035852	-0.215637
147.500000	2191.465241	0.615027
147.600000	1435.441047	1.158622
147.700000	766.628274	0.347703
147.800000	1322.988459	0.478569
147.900000	1179.614773	-0.268147
148.000000	2787.501772	0.064577
148.100000	754.364612	-1.006516
148.200000	1959.049225	0.701027
148.300000	1402.420921	1.128122
148.400000	1921.722083	0.160593
148.500000	1131.972719	0.573094
148.600000	1073.741085	-0.016529
148.700000	1283.430919	0.045739
148.800000	2082.858188	0.392307
148.900000	1546.811309	-0.130244
149.000000	1609.373779	0.702699
149.100000	249.406472	0.390752
149.200000	1570.494871	0.077270
149.300000	1239.927064	-0.384141
149.400000	1028.434609	-0.126100
149.500000	854.368746	-1.679553
149.600000	1405.094785	-0.409136
149.700000	1879.090326	0.619386
149.800000	1704.531064	0.249712
149.900000	2239.352351	0.182215
150.000000	397.908651	-0.636926
150.100000	1025.583576	0.495748
150.200000	2227.235376	0.230980
150.300000	1376.583141	0.428085
150.400000	809.474469	-0.207772
150.500000	919.063160	0.922001
150.600000	2228.780265	-0.153708
150.700000	1320.546632	0.267662
150.800000	1326.153238	-0.866501
150.900000	704.638780	0.160354
151.000000	667.645070	-1.453178
151.100000	2629.487483	-0.201096
151.200000	1519.468066	0.132829
151.300000	1569.023443	0.912352
151.400000	2530.882740	0.496859
151.500000	1664.688848	0.529605
151.600000	996.620128	-0.787876
151.700000	1410.954712	-0.386957
151.800000	1345.261612	0.035749
151.900000	1653.793121	0.170415
152.000000	1729.606236	-0.131066
152.100000	1760.829261	0.490778
152.200000	785.814329	-0.553709
152.300000	1524.185639	0.226587
152.400000	1234.573821	-0.227444
152.500000	2713.861201	-0.741157
152.600000	1441.569073	1.214270
152.700000	2130.416027	0.189426
152.800000	1223.368352	-1.068910
152.900000	1989.506352	-0.081227
153.000000	2899.459750	-0.667861
153.100000	635.193093	0.797822
153.200000	303.700944	0.867894
153.300000	2885.614964	0.244689
153.400000	1444.739455	-1.422779
153.500000	1802.264638	0.097228
153.600000	2371.562098	1.284548
153.700000	1678.439237	0.326431
153.800000	1476.809548	-0.195811
153.900000	1022.031274	3.126161
154.000000	1664.196544	0.595795
154.100000	1666.796764	-0.430153
154.200000	711.854728	0.486350
154.300000	1203.959479	-0.748797
154.400000	1676.092131	-0.285363
154.500000	1007.697661	-0.569123
154.600000	217.899381	-1.506541
154.700000	2110.751261	-0.261151
154.800000	1737.314303	0.907133
154.900000	963.834061	-0.857512
155.000000	2097.654355	0.797854
155.100000	2203.912355	-0.752679
155.200000	1375.743276	-0.437820
155.300000	388.274297	-0.348225
155.400000	1834.841042	0.769010
155.500000	1221.059199	0.461397
155.600000	1749.109744	-0.125991
155.700000	1046.220330	-1.609250
155.800000	171.455732	-1.278402
155.900000	2321.632351	0.226203
156.000000	1141.905861	0.159427
156.100000	1379.430299	-1.478104
156.200000	1659.835504	-0.032235
156.300000	1819.062720	0.421066
156.400000	1759.393829	0.246836
156.500000	767.653111	-2.634905
156.600000	1955.385743	-0.585142
156.700000	1014.317592	-0.162784
156.800000	1585.565198	-0.435405
156.900000	2935.058133	0.695917
157.000000	2004.663782	-0.344358
157.100000	1877.842402	0.690514
157.200000	600.183258	1.026895
157.300000	1056.252370	-0.173136
157.400000	1742.781384	-0.050843
157.500000	1277.197979	-1.456444
157.600000	640.887156	0.253307
157.700000	2482.779535	0.951514
157.800000	2079.539760	0.319494
157.900000	1105.326167	0.138705
158.000000	1178.503369	-0.388975
158.100000	2630.813136	0.243314
158.200000	1239.760126	-0.553286
158.300000	1015.611191	0.468941
158.400000	1154.900064	1.071178
158.500000	3243.385887	-0.178235
158.600000	1233.892074	0.583700
158.700000	470.140781	1.366398
158.800000	1172.644754	0.809649
158.900000	594.406156	0.386765
159.000000	444.595324	-0.987946
159.100000	1632.399007	0.166657
159.200000	2846.202483	-0.227921
159.300000	494.042861	-0.581486
159.400000	550.278962	-0.162158
159.500000	1955.009613	-0.039347
159.600000	1039.741762	0.484881
159.700000	1599.313560	-0.359072
159.800000	1252.204782	0.301773
159.900000	1616.161016	0.347560
160.000000	1744.377885	0.323275
160.100000	588.954312	1.512935
160.200000	1377.773916	0.138666
160.300000	1116.457006	-0.868026
160.400000	1425.594080	-0.583352
160.500000	1299.103592	0.773868
160.600000	1780.746113	0.182846
160.700000	2191.426290	0.419596
160.800000	2113.490267	-0.355642
160.900000	3310.706713	-0.949892
161.000000	1779.259756	1.342107
161.100000	1085.108722	0.221677
161.200000	474.689354	1.625214
161.300000	2563.017799	-0.593941
161.400000	1393.564459	-0.578936
161.500000	926.396798	0.733014
161.600000	1865.523182	-0.309540
161.700000	1284.663217	-0.272750
161.800000	1741.369097	0.151036
161.900000	3137.765440	-0.249865
162.000000	787.328818	1.000176
162.100000	1836.269644	-0.177752
162.200000	1060.209316	-0.019063
162.300000	1406.254883	-1.482804
162.400000	1416.889257	-0.668494
162.500000	1803.693272	1.375390
162.600000	1690.085929	0.012497
162.700000	1108.264177	-0.545369
162.800000	1172.389458	0.689770
162.900000	2525.809464	0.554942
163.000000	2029.549608	-0.716802
163.100000	1135.657063	-1.835123
163.200000	352.747389	0.406614
163.300000	837.394428	-0.764178
163.400000	1408.820550	1.077142
163.500000	892.717135	-0.925213
163.600000	1972.287402	0.194344
163.700000	1658.210451	0.000405
163.800000	977.825382	-1.493503
163.900000	1506.469982	1.515589
164.000000	2057.292215	-0.225423
164.100000	1321.460423	-0.212848
164.200000	640.061426	-1.008779
164.300000	2635.580006	0.277112
164.400000	1610.283056	1.314625
164.500000	2325.840442	-0.713262
164.600000	1020.277939	-0.917140
164.700000	2473.488409	0.570522
164.800000	2135.360973	0.051180
164.900000	292.493681	-0.616190
165.000000	709.172999	0.366007
165.100000	704.260031	-0.842767
165.200000	1246.943916	-0.929084
165.300000	130.653483	1.116004
165.400000	1238.211571	-0.230476
165.500000	2482.061304	-0.130452
165.600000	188.880526	-1.263076
165.700000	1425.893536	-0.568890
165.800000	1751.726284	0.824950
165.900000	1877.321216	-0.885219
166.000000	1641.339680	0.772689
166.100000	683.892449	2.074712
166.200000	1324.919612	1.112818
166.300000	431.950916	-0.499218
166.400000	957.203216	-0.923323
166.500000	1339.241640	-0.056193
166.600000	3031.519221	0.986568
166.700000	2235.261680	-0.548457
166.800000	900.344065	2.953030
166.900000	1658.235327	-0.423163
167.000000	4130.147349	0.698058
167.100000	2227.936178	0.172286
167.200000	1669.055401	-0.373491
167.300000	2155.595149	0.963137
167.400000	2369.143171	-0.523279
167.500000	1368.828955	-0.366873
167.600000	984.538158	0.501504
167.700000	1895.470644	0.186319
167.800000	940.473956	-1.145883
167.900000	1900.231437	-0.168040
168.000000	660.388236	0.021919
168.100000	2435.750964	0.284897
168.200000	970.075361	0.189599
168.300000	1070.591348	0.286052
168.400000	2322.240948	0.088552
168.500000	838.924264	0.711003
168.600000	2911.736538	-1.189894
168.700000	247.129780	-1.307621
168.800000	2066.339176	1.289410
168.900000	2665.264743	0.059647
169.000000	1199.747500	-1.352499
169.100000	978.567223	0.948781
169.200000	1818.333593	0.815233
169.300000	2487.670873	-0.711885
169.400000	1134.794554	0.289942
169.500000	968.796556	0.268823
169.600000	2327.704093	-0.147508
169.700000	939.793018	-0.245656
169.800000	2437.608517	0.403420
169.900000	1313.410858	1.127827
170.000000	1522.137109	0.563803
170.100000	1594.483951	-0.602212
170.200000	1764.469053	-0.222105
170.300000	1792.713431	-0.752704
170.400000	1977.092832	0.452473
170.500000	2694.705396	-0.275031
170.600000	1265.674734	1.929543
170.700000	1549.826311	-0.708713
170.800000	3183.419140	-0.162950
170.900000	979.658719	0.046414
171.000000	2741.398781	-0.072968
171.100000	1958.811484	0.246437
171.200000	2121.672063	-1.028501
171.300000	63.260301	-2.829730
171.400000	956.104211	-1.801621
171.500000	1763.828742	-0.419214
171.600000	1749.114099	-1.294790
171.700000	570.325611	0.131759
171.800000	2165.512336	0.798668
171.900000	1599.216949	-0.378955
172.000000	2685.503204	-0.124046
172.100000	1217.306477	1.149636
172.200000	772.120073	1.143961
172.300000	2444.047663	0.290284
172.400000	1036.141028	-1.575186
172.500000	603.425107	-0.385038
172.600000	1661.083160	0.129846
172.700000	2316.259489	0.110479
172.800000	1176.489739	1.812297
172.900000	2041.628713	0.246035
173.000000	1240.605446	-0.243034
173.100000	1132.455897	-0.845870
173.200000	2082.343792	0.251253
173.300000	1197.767473	0.883409
173.400000	1185.486309	-0.718201
173.500000	81.839528	-1.290042
173.600000	1265.624898	1.348288
173.700000	1691.353326	-0.228661
173.800000	2180.651522	-1.070069
173.900000	1738.071770	-0.336981
174.000000	529.681474	1.359452
174.100000	1781.576178	-0.011552
174.200000	1994.420192	-0.885946
174.300000	366.381042	-1.825591
174.400000	1431.512110	0.733458
174.500000	1462.686422	0.410628
174.600000	1780.017419	0.431166
174.700000	1218.701399	1.599905
174.800000	1772.926622	0.027264
174.900000	1312.073496	-0.087872
175.000000	902.176195	2.149985
175.100000	1697.907786	0.035789
175.200000	414.967288	0.380402
175.300000	2170.751280	-0.517697
175.400000	2135.777673	1.134654
175.500000	2054.870364	0.247603
175.600000	2197.046003	0.048872
175.700000	594.890759	2.046240
175.800000	1226.369455	0.716202
175.900000	3837.042916	-0.062732
176.000000	1432.100062	-0.696630
176.100000	1656.881445	-0.082795
176.200000	1118.954587	1.269478
176.300000	1918.051966	0.294554
176.400000	1641.422222	0.223124
176.500000	544.832830	0.057823
176.600000	1860.309013	1.096447
176.700000	2083.732959	-0.661579
176.800000	1871.128622	-0.024049
176.900000	623.433202	0.269589
177.000000	2737.536528	0.114887
177.100000	1435.432138	0.502413
177.200000	1379.145497	0.959255
177.300000	604.141223	-2.913055
177.400000	1454.716410	-0.290427
177.500000	795.226294	0.635223
177.600000	2368.383735	0.349586
177.700000	2727.115450	-0.455681
177.800000	2799.897735	0.089162
177.900000	1421.295855	2.675976
178.000000	1405.326001	0.526785
178.100000	1192.351822	0.910625
178.200000	4110.837232	-0.411715
178.300000	873.186051	-0.034067
178.400000	2305.832816	0.927014
178.500000	1180.600279	0.380604
178.600000	2546.697568	-0.316450
178.700000	1107.729992	0.204712
178.800000	1203.452357	-0.488050
178.900000	2165.399037	0.352605
179.000000	2269.636385	-0.434880
179.100000	1075.013190	-1.431258
179.200000	813.993411	-0.739887
179.300000	2590.173345	0.343859
179.400000	2473.733865	-0.280132
179.500000	1851.899474	0.785882
179.600000	1892.528228	-1.147550
179.700000	1731.608831	0.153911
179.800000	837.922769	-1.423472
179.900000	2087.892236	0.791116
180.000000	1818.458118	-0.408400
180.100000	670.608109	-0.651681
180.200000	59.797127	3.052411
180.300000	1640.902717	0.673665
180.400000	3257.391524	-0.468264
180.500000	1278.862942	-0.737421
180.600000	1210.732137	-2.068140
180.700000	3270.850324	1.177791
180.800000	1197.786043	-1.255037
180.900000	838.259782	-0.959249
181.000000	1944.038560	1.085873
181.100000	1626.656737	0.784472
181.200000	1695.365634	-0.119438
181.300000	651.052527	-0.810158
181.400000	559.647783	-0.402059
181.500000	1502.928019	-0.236548
181.600000	900.453317	0.167614
181.700000	602.099894	-2.926048
181.800000	1123.625854	0.177293
181.900000	2189.610861	-0.511995
182.000000	1263.707445	2.939100
182.100000	1885.778718	0.796823
182.200000	2114.813166	1.078958
182.300000	3046.951210	-0.390254
182.400000	94.884301	1.902303
182.500000	1009.536198	-0.150362
182.600000	2293.363412	-0.026170
182.700000	1823.745584	-1.511884
182.800000	940.753864	2.084965
182.900000	2042.854276	0.439694
183.000000	2001.640295	-0.012697
183.100000	906.573923	-0.102224
183.200000	500.316652	-1.633727
183.300000	1655.041589	-0.215011
183.400000	2869.851584	0.054979
183.500000	819.387530	-1.904770
183.600000	342.693470	-1.481055
183.700000	1044.286922	-0.609090
183.800000	749.096008	-0.079271
183.900000	1827.495541	-0.240323
184.000000	1148.141189	0.746317
184.100000	762.195516	0.337372
184.200000	1773.125909	-0.606394
184.300000	716.601899	2.099881
184.400000	2249.148876	0.429700
184.500000	1482.628243	0.416453
184.600000	1153.969670	1.740879
184.700000	657.100293	0.125106
184.800000	2768.606636	0.283127
184.900000	1267.703925	0.346399
185.000000	2193.391348	0.677470
185.100000	1400.790813	1.445849
185.200000	3169.969485	-0.098174
185.300000	2204.514220	-0.648658
185.400000	1911.792126	-1.158559
185.500000	2532.752135	0.676650
185.600000	2162.838011	0.323863
185.700000	1834.660297	0.052764
185.800000	1618.333060	0.474348
185.900000	1026.647560	-0.431330
186.000000	2310.307707	-0.217980
186.100000	587.105816	0.726486
186.200000	1185.515628	0.213267
186.300000	1894.910147	0.354389
186.400000	2218.058941	0.017587
186.500000	324.420200	0.012878
186.600000	1507.991948	-0.464751
186.700000	1975.733781	0.996421
186.800000	883.103330	-0.190065
186.900000	1050.680692	-0.444502
187.000000	1438.924433	0.124972
187.100000	1741.304142	-0.424115
187.200000	933.250087	0.061225
187.300000	1673.632197	0.212333
187.400000	780.381816	0.932970
187.500000	2255.042021	0.196403
187.600000	2433.027766	-0.614162
187.700000	807.102993	0.254407
187.800000	2681.749836	0.283643
187.900000	3930.983478	-0.106218
188.000000	1371.873458	-0.671183
188.100000	1426.288782	0.282879
188.200000	738.389409	-0.711418
188.300000	124.791013	2.940595
188.400000	1409.977591	-0.095138
188.500000	2363.135017	0.537773
188.600000	1713.793414	-0.108704
188.700000	2171.551010	-0.651129
188.800000	2241.215608	-0.405906
188.900000	2483.346517	-0.256295
189.000000	1900.321221	-0.507231
189.100000	642.941740	-0.289985
189.200000	644.401777	-2.138841
189.300000	1296.317168	-0.733340
189.400000	2426.373472	0.096018
189.500000	1242.079358	-0.738884
189.600000	2210.291464	1.235079
189.700000	1209.507659	0.315954
189.800000	2274.284048	-0.637439
189.900000	397.452407	-1.980733
190.000000	2078.351341	1.128375
190.100000	1698.903905	0.344267
190.200000	1609.759572	-1.451055
190.300000	679.035897	-0.681469
190.400000	2812.819667	0.677880
190.500000	1606.443368	-0.548819
190.600000	2069.100728	1.356113
190.700000	1905.446199	0.098696
190.800000	1326.153178	-0.482022
190.900000	979.413376	-0.885953
191.000000	841.855113	0.610601
191.100000	1070.772008	0.154917
191.200000	1422.725287	-0.379747
191.300000	1220.786237	1.287917
191.400000	1835.334663	0.320824
191.500000	1729.044435	0.423396
191.600000	1172.036457	-0.920049
191.700000	2921.413855	-0.196085
191.800000	249.911138	0.809227
191.900000	679.899157	1.086428
192.000000	1574.771700	-0.474750
192.100000	349.896718	0.366893
192.200000	999.788684	0.155203
192.300000	1484.607419	0.458030
192.400000	736.978551	-0.293494
192.500000	1424.568082	1.802331
192.600000	1208.427599	-1.004801
192.700000	926.029657	0.231130
192.800000	2002.179571	0.343350
192.900000	431.734728	0.255315
193.000000	1030.398032	1.443059
193.100000	660.098927	-1.404308
193.200000	1650.984206	0.628486
193.300000	2252.264504	0.384201
193.400000	921.409248	0.218187
193.500000	799.645240	0.099072
193.600000	1730.094782	0.192570
193.700000	90.937459	1.948500
193.800000	1254.631918	0.841074
193.900000	1660.102631	0.067894
194.000000	2472.910071	0.359296
194.100000	1564.533666	0.702496
194.200000	2100.186756	0.577560
194.300000	969.300599	-0.529188
194.400000	2404.682357	0.122082
194.500000	916.886665	0.240936
194.600000	1190.832986	0.234015
194.700000	1459.791408	1.059924
194.800000	283.171022	0.175652
194.900000	2126.738356	0.111836
195.000000	1913.465212	0.437523
195.100000	2467.594645	0.582193
195.200000	1229.235805	0.127969
195.300000	2098.482868	-0.186297
195.400000	1449.003757	-0.063073
195.500000	1124.730104	0.771694
195.600000	1629.136995	0.847278
195.700000	1385.093209	0.066539
195.800000	727.798980	-1.289010
195.900000	707.660375	0.708019
196.000000	1068.496167	0.081183
196.100000	1233.905434	-0.000385
196.200000	1306.041561	-0.542652
196.300000	2686.933118	-0.173662
196.400000	606.768427	-1.534361
196.500000	1960.171801	-0.698212
196.600000	2108.549540	1.292000
196.700000	1596.740556	-0.750223
196.800000	2135.858083	-0.399593
196.900000	1393.581286	1.419064
197.000000	1920.785923	0.251885
197.100000	970.746263	-0.137510
197.200000	1390.752998	-0.267683
197.300000	584.896457	-0.480921
197.400000	1152.674678	0.137111
197.500000	336.794641	-0.399986
197.600000	950.710915	0.055150
197.700000	1045.748360	-0.351340
197.800000	2932.543341	0.267705
197.900000	2153.914284	0.205282
198.000000	1381.054833	0.161874
198.100000	876.680716	-0.188165
198.200000	3487.378697	-0.522589
198.300000	703.447169	-1.613021
198.400000	1579.957316	-0.272532
198.500000	884.682578	2.426541
198.600000	650.225403	-0.399171
198.700000	2013.001812	-1.337811
198.800000	990.518851	-1.128568
198.900000	2982.175613	0.076179
199.000000	1385.077331	0.701116
199.100000	1206.321028	-0.454671
199.200000	1204.682395	0.834370
199.300000	1154.161744	0.895693
199.400000	2160.317792	-1.379363
199.500000	1538.842516	1.076902
199.600000	545.318389	3.115755
199.700000	1173.022893	0.084566
199.800000	1317.114858	0.341603
199.900000	1291.685453	-0.191524
200.000000	791.039480	-0.467784
200.100000	1972.889636	0.049873
200.200000	360.855341	1.616645
200.300000	443.604505	1.742967
200.400000	1199.502888	0.251695
200.500000	1708.319458	-0.048872
200.600000	2298.826933	-0.638251
200.700000	596.207422	1.061375
200.800000	2716.076803	0.268751
200.900000	782.314134	0.116942
201.000000	1959.021985	-1.051907
201.100000	1572.054630	-0.255303
201.200000	1640.692073	-0.625687
201.300000	1072.571237	-1.749583
201.400000	2005.851595	1.149055
201.500000	1405.024327	1.173301
201.600000	2517.495496	-0.583234
201.700000	864.298862	-2.522156
201.800000	1018.507822	-0.307388
201.900000	799.082903	-0.324343
202.000000	1599.706142	-0.586811
202.100000	1502.465685	-0.365980
202.200000	1140.155678	-1.235290
202.300000	771.444300	0.080510
202.400000	955.747025	0.875047
202.500000	2267.282907	0.366610
202.600000	399.221311	0.726401
202.700000	1568.459502	0.364944
202.800000	2144.091700	0.293344
202.900000	1815.476484	-0.184901
203.000000	904.757726	0.542927
203.100000	1780.072461	1.315747
203.200000	168.037719	0.871463
203.300000	2982.192874	0.233481
203.400000	1407.406305	-0.294331
203.500000	2867.282754	0.141419
203.600000	453.826738	1.846859
203.700000	2115.522848	-0.286248
203.800000	1167.069470	0.743063
203.900000	3325.717518	-0.681105
204.000000	1379.627319	-0.033259
204.100000	1565.202220	1.971664
204.200000	1298.957618	0.617093
204.300000	1840.176850	-0.465720
204.400000	2519.576408	-0.110805
204.500000	1034.349472	0.414774
204.600000	2159.323510	0.799072
204.700000	629.039066	-0.652420
204.800000	565.005226	-1.567859
204.900000	975.058270	-0.775696
205.000000	1610.935181	0.354524
205.100000	1182.758124	-2.050057
205.200000	2299.138653	0.507647
205.300000	1143.842776	1.530597
205.400000	2469.085433	0.206151
205.500000	1377.933317	0.150745
205.600000	2649.487171	0.192628
205.700000	1029.892550	0.345990
205.800000	2141.418110	-0.462878
205.900000	476.308512	0.280542
206.000000	897.531709	0.802363
206.100000	1558.921619	-0.513538
206.200000	3735.355957	0.161654
206.300000	954.602610	-0.025204
206.400000	2145.779873	-0.013142
206.500000	1164.858527	-0.291733
206.600000	2136.763503	-0.698623
206.700000	1340.021266	0.617049
206.800000	1061.972592	-0.431196
206.900000	1609.317448	-0.185439
207.000000	1347.310283	-0.864743
207.100000	761.565839	-0.737626
207.200000	1075.868225	-0.348150
207.300000	2801.512912	-0.245750
207.400000	492.545657	0.303724
207.500000	1247.782906	-0.335707
207.600000	816.935964	-0.179566
207.700000	505.139870	1.185311
207.800000	2180.324346	-0.236342
207.900000	2183.516646	0.943992
208.000000	1051.760474	-0.122493
208.100000	1435.352549	1.323267
208.200000	201.775339	-2.297399
208.300000	1255.292578	0.563992
208.400000	1483.813853	-0.965946
208.500000	1370.690440	0.006848
208.600000	870.204748	0.284641
208.700000	915.446426	-0.542038
208.800000	768.248127	0.435724
208.900000	2822.689051	1.350070
209.000000	808.578352	-0.547971
209.100000	2085.447782	0.273360
209.200000	2285.213318	-1.065096
209.300000	1182.493064	0.376332
209.400000	1569.801001	-0.690598
209.500000	1610.397159	0.523980
209.600000	840.750173	-0.006211
209.700000	1285.207929	-0.679886
209.800000	844.590999	2.107925
209.900000	1348.960636	-0.323633
210.000000	1092.886323	0.628925
210.100000	1634.678077	0.092846
210.200000	216.911432	-2.769458
210.300000	1944.466483	0.339248
210.400000	1105.079079	-0.243853
210.500000	924.787972	-1.275658
210.600000	940.921178	1.759998
210.700000	1827.233487	-0.018440
210.800000	1028.417608	1.367882
210.900000	1215.744611	-0.656440
211.000000	1227.364241	1.008062
211.100000	1725.928251	-0.746913
211.200000	1558.123183	0.853489
211.300000	822.322045	-0.680261
211.400000	1629.905895	0.255501
211.500000	1208.126392	-2.273925
211.600000	1458.570446	0.624338
211.700000	2399.552438	0.039503
211.800000	573.077216	-0.366516
211.900000	1759.421746	0.237404
212.000000	1518.141019	0.457766
212.100000	985.236106	-1.425241
212.200000	1813.525780	0.300147
212.300000	2496.866194	-1.062867
212.400000	2934.200177	0.231073
212.500000	1653.324414	0.598646
212.600000	1673.951290	-0.539381
212.700000	1217.250893	1.677248
212.800000	2176.665824	-0.387041
212.900000	2031.825839	0.036788
213.000000	1680.340766	0.398299
213.100000	1176.321785	-0.128306
213.200000	885.600425	-0.085206
213.300000	1363.946142	-1.667082
213.400000	1355.998283	0.993743
213.500000	1882.718821	0.685617
213.600000	2171.692451	0.004268
213.700000	1057.136336	0.901443
213.800000	1987.559581	-0.372651
213.900000	1235.647229	-0.367283
214.000000	1262.568773	0.927027
214.100000	1813.807940	0.709082
214.200000	947.252909	-0.521468
214.300000	748.362737	-0.426969
214.400000	1378.415947	1.402375
214.500000	2153.730377	0.096663
214.600000	1375.576512	0.521834
214.700000	1973.824067	-0.127347
214.800000	2039.445530	-0.338657
214.900000	937.715624	0.048446
215.000000	1478.391541	-0.161316
215.100000	291.443480	0.759466
215.200000	1431.318250	-1.158964
215.300000	1852.561502	0.808887
215.400000	2499.469558	0.011750
215.500000	1947.815145	0.129623
215.600000	768.473504	-1.053060
215.700000	1543.113936	-0.433445
215.800000	1977.323759	-0.112884
215.900000	2112.804636	-0.436341
216.000000	1463.372336	-0.835377
216.100000	2386.813519	-0.339081
216.200000	1464.879468	-0.448546
216.300000	1208.615123	1.166423
216.400000	2666.916894	-0.204426
216.500000	979.209438	0.209491
216.600000	1506.211006	-0.639436
216.700000	2170.656574	-0.595479
216.800000	1233.620054	-0.004169
216.900000	1933.497126	0.234328
217.000000	214.906325	1.114793
217.100000	1261.489779	-1.895201
217.200000	2421.039893	0.631230
217.300000	1051.782585	-0.348855
217.400000	2448.877792	-0.804368
217.500000	1419.725009	0.299463
217.600000	2154.431224	-0.379548
217.700000	698.362044	-0.088067
217.800000	969.155740	1.030291
217.900000	1325.897520	-0.039572
218.000000	1585.700835	0.218476
218.100000	795.752776	-1.200312
218.200000	1377.779493	0.843319
218.300000	1898.699172	-0.766683
218.400000	1758.291510	-0.208229
218.500000	636.070007	0.482611
218.600000	1502.226468	0.417018
218.700000	1424.860996	-0.403194
218.800000	1236.266690	-0.552354
218.900000	1035.303752	-0.328922
219.000000	2071.580885	-0.415169
219.100000	1960.217128	0.031607
219.200000	1068.630623	1.595695
219.300000	1291.943244	-0.955618
219.400000	939.595523	1.600912
219.500000	1466.715945	0.206422
219.600000	1435.845336	-0.457440
219.700000	526.573225	-0.274261
219.800000	1418.879206	-0.015158
219.900000	1900.557725	1.142520
220.000000	750.486895	-0.815412
220.100000	577.919332	0.207786
220.200000	292.561427	2.011121
220.300000	2440.291110	-0.218085
220.400000	1463.945537	-0.660709
220.500000	1703.068995	0.565315
220.600000	547.811524	1.047678
220.700000	718.404882	-0.558743
220.800000	1184.067801	-0.520009
220.900000	1898.045399	0.693899
221.000000	2190.769036	0.274767
221.100000	514.524929	-2.002918
221.200000	1592.078245	-0.207193
221.300000	1554.658958	0.727515
221.400000	2325.898331	-0.440039
221.500000	502.405032	-1.791661
221.600000	1532.450565	1.573547
221.700000	2078.302962	-0.100277
221.800000	2120.634764	-0.120445
221.900000	1387.946763	0.617897
222.000000	2793.003483	0.347033
222.100000	962.524984	0.540688
222.200000	2357.113268	-0.411557
222.300000	2164.759225	0.294743
222.400000	2252.553831	0.694009
222.500000	1096.908896	-0.171980
222.600000	940.591076	-0.290328
222.700000	1547.313416	-0.881348
222.800000	1922.594695	0.346825
222.900000	1705.767642	0.321055
223.000000	1443.337883	0.862455
223.100000	1388.268427	0.357798
223.200000	1391.666977	-0.121519
223.300000	1903.507926	0.120883
223.400000	1173.193371	0.071341
223.500000	1659.419367	0.732628
223.600000	1378.046912	0.341358
223.700000	1111.930277	0.555178
223.800000	1645.685401	0.955330
223.900000	2780.355057	0.186993
224.000000	434.902056	-0.586740
224.100000	2076.559752	-1.017436
224.200000	1946.176886	0.335353
224.300000	1582.834615	0.654370
224.400000	1797.761337	-0.921403
224.500000	1079.690634	-0.184157
224.600000	1510.687206	-0.390850
224.700000	1317.579075	0.894689
224.800000	2435.901929	-0.069213
224.900000	1724.032965	-0.662516
225.000000	1253.625063	0.167245
225.100000	1454.344611	-0.662208
225.200000	2133.553868	-0.109214
225.300000	1333.080614	-0.505305
225.400000	1223.452291	0.071550
225.500000	1393.012002	-0.441439
225.600000	1431.612753	-0.033347
225.700000	801.440212	-0.855956
225.800000	2070.259222	0.085813
225.900000	1090.520938	-0.571248
226.000000	1277.906502	0.057047
226.100000	1650.084870	0.572055
226.200000	1264.588036	-1.202104
226.300000	2072.277124	-1.209799
226.400000	1093.448582	1.467480
226.500000	1586.198212	0.205946
226.600000	673.052353	1.095006
226.700000	1472.691474	-0.527291
226.800000	2334.133554	-0.803541
226.900000	935.404206	-0.072677
227.000000	874.534768	0.588629
227.100000	1442.173107	0.359358
227.200000	600.841372	-0.314384
227.300000	1209.522320	-0.122202
227.400000	692.047797	1.184755
227.500000	1949.389881	0.910622
227.600000	1215.406255	1.781999
227.700000	1748.077232	-0.794331
227.800000	1517.248137	-0.277966
227.900000	932.095641	0.825372
228.000000	736.653653	0.286465
228.100000	645.121744	1.474486
228.200000	1196.747343	-0.120815
228.300000	585.821623	1.234053
228.400000	2380.567982	0.164560
228.500000	774.091361	0.429891
228.600000	886.653914	-1.002980
228.700000	593.971522	-0.518669
228.800000	2174.431718	-0.068999
228.900000	1440.916960	0.037202
229.000000	1430.634023	-0.868084
229.100000	665.417905	2.336053
229.200000	1172.950012	-0.409905
229.300000	1699.030853	1.184970
229.400000	898.908588	-0.003215
229.500000	654.667350	-0.906206
229.600000	1473.472781	-0.756423
229.700000	1059.777481	0.487202
229.800000	1109.141304	0.609650
229.900000	871.021655	0.422967
230.000000	299.451851	3.013934
230.100000	1994.672793	-0.091790
230.200000	1022.562277	0.254167
230.300000	2269.411782	0.142478
230.400000	1327.789276	0.567026
230.500000	1385.564392	0.779427
230.600000	920.856887	-0.399290
230.700000	2474.171160	-0.531125
230.800000	1953.700116	0.591823
230.900000	2260.171982	0.479563
231.000000	466.340718	0.378386
231.100000	2742.815634	-0.183352
231.200000	1083.490038	0.831272
231.300000	2509.559936	0.044881
231.400000	1749.970832	-0.512552
231.500000	1204.786138	-0.096219
231.600000	1248.228315	0.676300
231.700000	2587.841052	-0.279360
231.800000	673.892026	-0.825926
231.900000	1656.079448	-0.626383
232.000000	1483.719320	0.554900
232.100000	1178.105954	1.007544
232.200000	1325.839703	0.066436
232.300000	695.353538	-0.388928
232.400000	1623.915844	-0.341149
232.500000	2197.320196	0.186059
232.600000	2062.708586	0.801715
232.700000	1326.667510	1.148564
232.800000	1859.847200	-0.253812
232.900000	860.621672	-0.444438
233.000000	2038.934918	0.075712
233.100000	1554.542912	0.634341
233.200000	1913.468510	0.046493
233.300000	904.711471	-1.092772
233.400000	1800.982515	1.118268
233.500000	2054.055182	0.288686
233.600000	1536.380814	-0.639580
233.700000	1012.174539	-0.724955
233.800000	2304.807345	0.218892
233.900000	1731.230008	-0.186498
234.000000	2113.843119	0.121580
234.100000	1282.334870	-0.015064
234.200000	390.154149	-2.222690
234.300000	3011.096346	-0.710782
234.400000	1923.075758	-0.154897
234.500000	1551.329587	-2.401580
234.600000	1032.304855	0.152197
234.700000	2510.264276	-0.246133
234.800000	1448.922834	-0.563192
234.900000	495.272810	-0.850038
235.000000	1517.929627	0.488705
235.100000	1455.055707	-1.249592
235.200000	1796.284058	-0.992402
235.300000	1410.535665	0.124040
235.400000	1989.535853	-0.144151
235.500000	627.199820	1.081085
235.600000	1049.647554	0.101349
235.700000	569.053445	0.441541
235.800000	1540.287666	-0.780293
235.900000	1208.282740	0.742643
236.000000	612.481597	0.025633
236.100000	274.580126	0.510730
236.200000	2266.837622	-0.639275
236.300000	1691.934136	0.750551
236.400000	1119.697860	-0.237128
236.500000	2363.213364	0.657876
236.600000	2293.458610	-0.943975
236.700000	996.812336	-0.604901
236.800000	913.761020	0.309635
236.900000	3013.417524	0.412240
237.000000	2188.291260	-0.449569
237.100000	1106.499343	0.077838
237.200000	817.924314	-1.283722
237.300000	1568.991941	0.081273
237.400000	247.821341	-0.213832
237.500000	1493.445001	0.101202
237.600000	1346.721210	0.104798
237.700000	853.549585	0.129223
237.800000	721.293684	1.818177
237.900000	1143.091130	-0.811639
238.000000	1500.307147	0.786138
238.100000	1843.327886	-0.471788
238.200000	424.715052	0.721421
238.300000	629.619827	-0.296950
238.400000	943.789030	0.964128
238.500000	1112.623325	-0.597790
238.600000	876.974149	1.500859
238.700000	940.969348	1.009942
238.800000	1997.362391	0.270448
238.900000	1504.710022	-0.118889
239.000000	490.356867	1.556331
239.100000	1739.836919	0.109541
239.200000	2314.927004	0.178125
239.300000	945.090924	-0.726741
239.400000	1949.568804	-0.035628
239.500000	1566.787772	-0.149882
239.600000	861.571358	2.288017
239.700000	1480.932414	0.162225
239.800000	2763.986422	0.066236
239.900000	1752.121179	0.254268
240.000000	1521.194460	-0.602544
240.100000	1520.749311	1.378511
240.200000	977.481592	0.046870
240.300000	1906.508363	0.013602
240.400000	2269.581307	0.239374
240.500000	1430.692283	0.067828
240.600000	1644.172275	0.422914
240.700000	879.215580	-0.315240
240.800000	1870.726863	-0.041339
240.900000	874.357335	0.304174
241.000000	1541.478151	0.419824
241.100000	797.938970	-0.007643
241.200000	1293.831300	0.048104
241.300000	2165.525414	-0.014793
241.400000	2095.835651	0.186417
241.500000	692.777478	1.515507
241.600000	1655.254028	0.714529
241.700000	1851.505032	-0.617994
241.800000	2875.041883	0.044113
241.900000	1222.217389	0.335295
242.000000	2198.146482	0.490088
242.100000	1338.156565	0.010446
242.200000	1301.056427	-0.186425
242.300000	914.936404	-0.002872
242.400000	1526.687330	0.217263
242.500000	2057.640893	0.983947
242.600000	717.490155	0.214377
242.700000	2131.354641	0.064877
242.800000	1921.517389	0.358107
242.900000	731.480142	-0.446352
243.000000	1544.501041	-0.414157
243.100000	607.707036	0.039982
243.200000	1255.452970	-0.708620
243.300000	2039.809732	-0.123341
243.400000	1097.572918	-1.302352
243.500000	1512.561353	0.137273
243.600000	2101.604665	-1.106090
243.700000	913.759895	0.044783
243.800000	23.873880	2.738939
243.900000	1129.363207	-0.022966
244.000000	759.222920	-0.253324
244.100000	643.326657	-1.274629
244.200000	1752.885774	-0.421635
244.300000	2231.776740	0.176935
244.400000	90.642884	-1.104384
244.500000	1438.249362	0.291926
244.600000	1646.077081	-0.538973
244.700000	1137.654914	-0.667880
244.800000	1585.157931	-0.977911
244.900000	1486.915685	0.414598
245.000000	1217.135733	0.550746
245.100000	1492.991022	-0.310816
245.200000	678.379267	0.363996
245.300000	1109.986297	-0.918604
245.400000	2338.296558	0.210680
245.500000	1309.320095	-0.012174
245.600000	1537.679660	0.503288
245.700000	1310.391695	0.053034
245.800000	1100.795724	-0.850323
245.900000	745.596172	-0.324712
246.000000	1484.424354	0.379944
246.100000	1028.794909	0.616228
246.200000	1549.450196	-0.561133
246.300000	1082.383776	-0.710320
246.400000	2536.599413	0.478783
246.500000	778.911678	-0.725679
246.600000	749.352520	0.018654
246.700000	1239.586883	-0.028427
246.800000	319.672276	0.421185
246.900000	2788.524640	0.184949
247.000000	639.039093	-0.868974
247.100000	511.724523	-2.925974
247.200000	871.798249	-0.422532
247.300000	1525.656556	0.747513
247.400000	613.060972	-0.177339
247.500000	939.720689	-0.426327
247.600000	1028.868126	1.157112
247.700000	705.245259	-1.135792
247.800000	556.894248	0.134311
247.900000	1778.953451	0.510966
248.000000	573.379591	-0.128633
248.100000	1651.607546	-0.203679
248.200000	1063.516825	1.012546
248.300000	1198.341259	0.606618
248.400000	1431.113615	-0.116843
248.500000	880.090679	0.754621
248.600000	799.355592	0.474295
248.700000	1400.896282	0.288234
248.800000	2149.087201	0.110398
248.900000	272.491441	-0.902271
249.000000	1075.034196	0.804744
249.100000	2080.745309	0.121342
249.200000	2317.603796	-0.436763
249.300000	1120.713944	-0.297978
249.400000	1497.813694	0.898389
249.500000	965.855650	0.661899
249.600000	2028.744304	-0.456676
249.700000	1609.872600	-0.433404
249.800000	954.867322	0.750621
249.900000	2621.755385	-0.044301
250.000000	887.482990	-0.074019
250.100000	249.969499	0.175199
250.200000	2409.235099	0.156726
250.300000	1291.533951	-0.673739
250.400000	1243.391119	0.042369
250.500000	2443.887253	0.543627
250.600000	1428.288489	0.380671
250.700000	1433.858278	-0.719521
250.800000	722.551015	-0.501722
250.900000	1850.088712	0.577131
251.000000	2579.476713	0.240080
251.100000	1883.829694	-0.177968
251.200000	533.274528	0.903402
251.300000	1955.369725	0.162685
251.400000	2036.834903	0.073726
251.500000	1564.138153	0.103278
251.600000	1074.522713	-0.335269
251.700000	1766.533717	0.284771
251.800000	1647.600441	0.003579
251.900000	1253.428699	-0.783222
252.000000	1959.696028	0.006418
252.100000	1139.578831	0.362834
252.200000	2221.442040	-0.293377
252.300000	1785.752902	-0.301629
252.400000	1436.949854	0.498412
252.500000	1243.812245	-0.686693
252.600000	1255.688403	0.055844
252.700000	1032.157438	0.470009
252.800000	1739.832235	-0.581006
252.900000	1784.567417	-0.096571
253.000000	316.562298	-0.892540
253.100000	683.115072	2.329054
253.200000	2197.404456	-0.117530
253.300000	714.238915	-0.363411
253.400000	1242.682390	-0.118918
253.500000	964.932910	-0.300050
253.600000	695.566396	1.478278
253.700000	2090.804604	-0.591868
253.800000	964.347567	-0.174500
253.900000	1567.318589	0.551676
254.000000	883.434760	-0.052705
254.100000	1584.313297	-0.422450
254.200000	1083.380266	-0.399301
254.300000	812.512420	0.749939
254.400000	962.455419	0.449366
254.500000	1054.474327	-0.444305
254.600000	711.024988	-0.083676
254.700000	2311.664910	-0.395101
254.800000	1365.796436	0.271508
254.900000	820.896493	-0.423094
255.000000	1358.860791	0.325011
255.100000	1110.007653	-0.349427
255.200000	1989.372275	-0.771485
255.300000	1135.865946	0.020057
255.400000	857.738048	0.088163
255.500000	1474.878747	0.572984
255.600000	1741.443418	-0.055244
255.700000	125.889329	0.991692
255.800000	1709.281311	-0.416249
255.900000	2122.889987	-0.011973
256.000000	1088.694719	0.277344
256.100000	1029.407870	0.175836
256.200000	1619.623653	0.004961
256.300000	535.557022	-0.387381
256.400000	1211.207713	-0.896068
256.500000	1228.006917	1.028170
256.600000	1409.860734	-0.199671
256.700000	656.868433	1.418427
256.800000	1458.936830	0.135853
256.900000	1422.248831	0.644295
257.000000	578.101522	0.481883
257.100000	1357.166568	0.644796
257.200000	1175.793896	1.380303
257.300000	864.996936	0.450774
257.400000	1843.655458	0.336330
257.500000	1406.164252	0.915852
257.600000	950.946108	-0.553105
257.700000	1219.868268	-0.174456
257.800000	727.490137	-0.015518
257.900000	866.092503	0.490089
258.000000	934.482202	0.881793
258.100000	1210.149395	-0.164336
258.200000	376.442830	-0.630066
258.300000	1930.523646	-0.196342
258.400000	2052.502961	0.657042
258.500000	1735.386465	0.039645
258.600000	195.841536	-1.007841
258.700000	1058.079168	-0.239807
258.800000	1746.313825	0.020485
258.900000	1575.327786	0.050204
259.000000	1053.223404	0.354877
259.100000	1364.969825	-0.112990
259.200000	729.927009	-0.270641
259.300000	1549.820769	0.003355
259.400000	984.147856	0.585402
259.500000	1053.093336	-0.112703
259.600000	845.377579	0.249414
259.700000	1536.860707	-0.127192
259.800000	1973.173285	0.050461
259.900000	1770.173119	0.314404
260.000000	1303.570279	-1.007343
260.100000	893.886594	0.510312
260.200000	827.003819	-0.104100
260.300000	2207.574807	-0.002372
260.400000	2418.596992	0.018102
260.500000	654.446337	-1.009230
260.600000	995.643076	-0.116038
260.700000	1770.679446	-0.118409
260.800000	900.699126	0.663010
260.900000	1788.712978	0.038879
261.000000	2313.323624	0.071229
261.100000	866.378725	-0.244971
261.200000	1382.497572	0.276978
261.300000	2291.082944	0.063890
261.400000	1792.674799	-0.103103
261.500000	1351.329964	-0.683370
261.600000	1475.654721	0.215259
261.700000	1355.396098	-0.439663
261.800000	1190.913598	-0.080351
261.900000	765.780354	-0.803136
262.000000	1539.609505	0.416186
262.100000	1654.380363	-0.505194
262.200000	1632.421150	0.306833
262.300000	626.248940	-0.545769
262.400000	676.230252	-0.279364
262.500000	993.721856	-0.218795
262.600000	1563.898246	-0.204766
262.700000	574.706221	-0.390882
262.800000	1529.704007	-0.379371
262.900000	471.870948	0.408445
263.000000	479.473844	-0.756826
263.100000	1124.810134	0.870185
263.200000	2117.789550	-0.250545
263.300000	1513.958536	-0.486722
263.400000	1059.340790	-0.502043
263.500000	1729.199584	0.967558
263.600000	1663.680122	-0.303965
263.700000	1307.270852	0.240511
263.800000	1661.265677	-0.755187
263.900000	2115.184032	0.216035
264.000000	1219.432824	0.009587
264.100000	1079.983709	0.139056
264.200000	1400.633354	-0.672244
264.300000	1416.335134	0.279435
264.400000	917.817975	-0.079658
264.500000	1220.703913	-0.028281
264.600000	700.423948	-1.092092
264.700000	1311.652698	-0.223089
264.800000	1725.106638	-0.618059
264.900000	1362.113647	-0.012464
265.000000	1173.885344	0.838866
265.100000	1417.774660	-0.293886
265.200000	615.857973	-0.444058
265.300000	571.473884	0.127857
265.400000	1859.005044	0.150829
265.500000	1975.712979	-0.228584
265.600000	376.166376	2.520500
265.700000	837.978615	-0.502709
265.800000	2170.566534	0.488724
265.900000	730.872844	1.140863
266.000000	678.977099	0.846123
266.100000	1062.591982	0.126490
266.200000	1108.483197	0.488710
266.300000	1790.958445	-0.114116
266.400000	1069.520719	0.279548
266.500000	1454.626255	0.873780
266.600000	1832.885063	0.408053
266.700000	1442.039619	-0.501876
266.800000	697.906453	0.817382
266.900000	1337.961195	0.416312
267.000000	915.139511	-0.183352
267.100000	1627.012232	-0.066112
267.200000	938.585863	0.295908
267.300000	1865.750778	0.554050
267.400000	810.740638	0.322569
267.500000	1019.884594	-0.578632
267.600000	1629.720425	-0.352102
267.700000	1667.169948	0.029679
267.800000	1099.016960	0.239069
267.900000	1464.039019	0.270655
268.000000	936.669832	-0.278101
268.100000	1385.844783	-0.689902
268.200000	1296.998256	0.008909
268.300000	353.475901	0.193454
268.400000	1723.482947	0.394297
268.500000	1072.754621	-0.220727
268.600000	909.062194	-0.180618
268.700000	993.608328	0.619144
268.800000	1832.658483	0.249975
268.900000	734.861714	-0.368595
269.000000	2077.053138	0.215205
269.100000	938.919409	0.571777
269.200000	1390.064943	-0.040122
269.300000	1583.070444	-0.610324
269.400000	1992.904690	0.197792
269.500000	1600.719400	0.455331
269.600000	1273.079428	0.027960
269.700000	1037.549806	-0.178595
269.800000	1900.036588	-0.074881
269.900000	1395.787292	-0.163874
270.000000	2376.753805	0.025736
270.100000	1167.005363	0.119321
270.200000	1298.570937	0.034559
270.300000	1363.863314	-0.198979
270.400000	1523.298073	-0.482300
270.500000	1590.561521	0.081221
270.600000	1236.119069	0.307125
270.700000	1469.002432	0.392863
270.800000	1406.483233	-0.560525
270.900000	1681.028250	0.023543
271.000000	850.169058	-0.816835
271.100000	815.962739	0.393844
271.200000	935.599480	-0.025971
271.300000	1857.852557	-0.013630
271.400000	1329.587606	0.005351
271.500000	1188.256458	0.511079
271.600000	745.380274	0.369157
271.700000	1978.183212	0.081923
271.800000	1100.348894	-0.122465
271.900000	1634.865058	0.178182
272.000000	990.295205	-0.102475
272.100000	1071.087743	0.043695
272.200000	956.801784	-0.515322
272.300000	1307.977435	-0.125111
272.400000	1953.998826	0.552614
272.500000	745.317713	0.345144
272.600000	1376.195725	-0.349977
272.700000	930.289175	-0.639851
272.800000	1182.201443	-0.198149
272.900000	783.383703	0.054839
273.000000	1221.990727	-0.220169
273.100000	1098.240446	-0.562814
273.200000	1126.382348	-0.772421
273.300000	1270.134554	0.218571
273.400000	1534.085470	0.366239
273.500000	791.489985	-0.039079
273.600000	1519.441641	-0.033893
273.700000	1471.416984	-0.943907
273.800000	969.442676	0.195079
273.900000	954.322124	0.943497
274.000000	916.402106	-0.221256
274.100000	1020.550372	-0.256765
274.200000	658.439848	0.242608
274.300000	1450.126026	-0.173315
274.400000	744.859655	0.163435
274.500000	1005.404154	-0.136289
274.600000	999.832269	0.193409
274.700000	958.008086	-0.198623
274.800000	722.935275	0.179443
274.900000	1331.277442	-0.055236
275.000000	1133.554373	0.386130
275.100000	974.099618	-0.166499
275.200000	962.900314	0.585142
275.300000	1733.454507	0.329818
275.400000	1124.252883	-0.322033
275.500000	1253.501007	0.104579
275.600000	1112.971584	-0.080144
275.700000	1415.143329	0.776650
275.800000	947.358106	0.097530
275.900000	1474.027522	-0.358595
276.000000	1497.615845	0.562022
276.100000	889.912645	1.079175
276.200000	1766.863454	0.380833
276.300000	1211.806160	0.028645
276.400000	1022.813213	0.107425
276.500000	1125.235977	0.211265
276.600000	1107.095579	-0.261948
276.700000	886.050024	0.006674
276.800000	1281.123659	-0.029426
276.900000	1260.658366	0.252379
277.000000	1258.623470	0.198257
277.100000	938.705155	-0.223631
277.200000	1122.638976	-0.180293
277.300000	1585.311073	-0.432616
277.400000	1217.651163	0.204898
277.500000	1020.035874	0.255240
277.600000	1004.538095	0.645807
277.700000	972.202939	-0.247758
277.800000	1266.960798	-0.377903
277.900000	1635.481603	0.283383
278.000000	838.292662	0.270186
278.100000	1682.318048	-0.070023
278.200000	1221.099911	-0.358647
278.300000	1548.493063	-0.025697
278.400000	2162.361324	0.163852
278.500000	1558.028820	-0.482385
278.600000	656.610474	-0.387993
278.700000	1536.817797	0.332108
278.800000	1333.519217	-0.286408
278.900000	1719.059398	-0.023888
279.000000	721.523817	0.521170
279.100000	1425.894121	0.078114
279.200000	1636.746727	-0.389342
279.300000	1492.896802	-0.032526
279.400000	1345.332502	0.168100
279.500000	856.485725	-0.004652
279.600000	1358.815761	-0.487456
279.700000	1034.552735	0.012679
279.800000	2053.660353	0.119926
279.900000	1193.006925	-0.002662
280.000000	1197.928457	-0.060903
280.100000	1190.330427	0.507280
280.200000	1116.070400	-0.511995
280.300000	1383.153725	-0.185369
280.400000	979.218554	-0.217849
280.500000	1200.138898	0.192301
280.600000	1584.599835	0.046452
280.700000	1124.406855	-0.542959
280.800000	1185.537978	0.328032
280.900000	591.198748	-0.822331
281.000000	1102.863535	-0.430841
281.100000	1362.883701	-0.024970
281.200000	1138.168809	-0.105911
281.300000	1058.111741	0.077555
281.400000	1194.442151	0.302393
281.500000	1323.989552	-0.080416
281.600000	896.387182	-0.338601
281.700000	1270.470680	-0.182754
281.800000	1475.693742	0.416646
281.900000	1344.541096	-0.263024
282.000000	827.338310	0.325503
282.100000	1163.376930	-0.034907
282.200000	1336.274069	0.110923
282.300000	1040.615411	-0.364824
282.400000	757.096162	-0.459303
282.500000	1202.545527	0.096137
282.600000	1224.496220	-0.472124
282.700000	1420.078906	0.308271
282.800000	1189.249484	0.430146
282.900000	1902.626918	-0.323761
283.000000	992.295760	0.302009
283.100000	490.441460	0.093848
283.200000	1096.745518	-0.240083
283.300000	1002.289159	-0.439799
283.400000	1209.609347	0.066498
283.500000	1148.479878	0.312118
283.600000	726.275902	-0.048866
283.700000	1644.584202	0.224540
283.800000	1032.403018	-0.506196
283.900000	886.798889	-0.214603
284.000000	1399.511916	-0.060826
284.100000	954.663094	0.167402
284.200000	1230.267746	0.271333
284.300000	1431.114014	0.076132
284.400000	1475.066304	0.174810
284.500000	936.383835	0.567981
284.600000	1116.468071	0.224434
284.700000	1711.872065	0.234254
284.800000	1664.498472	-0.310969
284.900000	1397.166681	0.298104
285.000000	865.341691	0.086977
285.100000	1190.253577	0.160084
285.200000	885.330018	0.025019
285.300000	1234.691127	0.298434
285.400000	1522.504166	0.337750
285.500000	1193.946006	0.144033
285.600000	1838.992985	0.202930
285.700000	1269.051744	-0.244001
285.800000	1155.758387	0.064212
285.900000	1173.077404	0.460171
286.000000	1285.278737	0.001426
286.100000	1110.659700	-0.354032
286.200000	1006.429797	-0.026632
286.300000	1477.890445	0.311979
286.400000	896.628664	-0.019167
286.500000	1477.990631	0.207624
286.600000	1545.580013	-0.086037
286.700000	1604.115435	-0.441574
286.800000	916.133254	0.224608
286.900000	945.312375	0.077262
287.000000	959.066190	0.224400
287.100000	1006.716659	-0.136039
287.200000	1281.287885	-0.123050
287.300000	1755.707469	0.247572
287.400000	920.527451	-0.418639
287.500000	1110.555159	0.320538
287.600000	895.284713	-0.198810
287.700000	1768.013952	-0.387311
287.800000	1443.573597	0.400267
287.900000	1679.045879	-0.074083
288.000000	1140.524822	0.437669
288.100000	1196.844474	0.054688
288.200000	1503.230240	-0.048982
288.300000	976.171851	0.133517
288.400000	1702.429487	0.096710
288.500000	1828.937304	-0.185735
288.600000	868.975234	0.333273
288.700000	1396.101379	-0.047377
288.800000	1226.490446	0.301661
288.900000	1273.889674	-0.306442
289.000000	1478.796967	0.320554
289.100000	1257.922613	-0.184193
289.200000	1426.082869	0.282781
289.300000	961.085231	-0.143968
289.400000	1645.762854	0.074988
289.500000	1168.024662	-0.347765
289.600000	919.947982	0.156528
289.700000	1034.767378	0.248882
289.800000	1554.968955	-0.056404
289.900000	823.067210	0.092481
290.000000	1295.092503	0.070331
290.100000	1200.561719	-0.178811
290.200000	1519.266881	0.104032
290.300000	887.597123	-0.361444
290.400000	1055.814474	0.157418
290.500000	957.957289	0.151204
290.600000	1181.660908	-0.311673
290.700000	1164.795970	0.177254
290.800000	1169.329469	-0.303152
290.900000	1224.827754	0.580394
291.000000	1513.034208	0.112298
291.100000	1484.420427	0.533730
291.200000	1269.513704	-0.388625
291.300000	1163.616070	-0.251648
291.400000	1102.461741	0.053706
291.500000	1039.484500	-0.096503
291.600000	1276.706763	-0.150784
291.700000	1265.053330	0.364816
291.800000	1386.689667	0.018871
291.900000	1031.450792	0.350302
292.000000	858.491123	-0.259385
292.100000	941.631523	0.266024
292.200000	1075.437207	-0.526862
292.300000	1478.194038	-0.008886
292.400000	1023.794423	-0.262931
292.500000	980.258035	-0.196445
292.600000	1086.383046	-0.031629
292.700000	678.764379	-0.394421
292.800000	1419.828336	-0.028935
292.900000	1242.420061	-0.068766
293.000000	1006.476619	-0.085989
293.100000	928.126841	0.214798
293.200000	1151.769433	0.091404
293.300000	1036.150498	0.254053
293.400000	974.280982	-0.340866
293.500000	1122.902844	0.251035
293.600000	891.515280	0.265898
293.700000	1217.345491	0.143478
293.800000	702.559792	0.310057
293.900000	1687.554251	-0.071344
294.000000	1521.413292	0.226687
294.100000	1222.430453	-0.010184
294.200000	874.524894	-0.100833
294.300000	1298.338459	0.306464
294.400000	908.839174	0.235838
294.500000	1422.137899	0.065137
294.600000	1198.939560	0.152120
294.700000	1755.421955	0.103922
294.800000	1067.924669	-0.079629
294.900000	1772.828752	-0.269065
295.000000	934.732338	0.187117
295.100000	1371.255595	-0.167921
295.200000	1306.918688	0.037702
295.300000	1000.347284	0.200669
295.400000	955.187009	0.498459
295.500000	1092.931003	-0.156225
295.600000	839.793276	-0.222998
295.700000	1331.907638	-0.040376
295.800000	1451.155152	0.259744
295.900000	1460.153892	0.089642
296.000000	802.068653	-0.514680
296.100000	926.163729	-0.442395
296.200000	1496.530429	0.356527
296.300000	1031.567653	-0.073957
296.400000	1484.650459	0.187565
296.500000	656.028016	0.140513
296.600000	1365.913203	-0.021998
296.700000	1118.401036	0.259291
296.800000	1813.828802	0.033047
296.900000	1297.576755	0.238602
297.000000	1121.484549	-0.221505
297.100000	970.670107	-0.210019
297.200000	1150.914892	0.104991
297.300000	1397.833971	-0.027580
297.400000	1474.540463	-0.071192
297.500000	1010.216447	-0.009983
297.600000	1543.147533	-0.120985
297.700000	1343.983451	-0.279263
297.800000	1350.340481	-0.315592
297.900000	1035.926644	-0.075079
298.000000	1238.734566	-0.088167
298.100000	1361.739344	0.062663
298.200000	1266.805746	-0.001708
298.300000	1437.894643	-0.018221
298.400000	728.332420	-0.013650
298.500000	1505.317316	0.393422
298.600000	1179.131301	0.066146
298.700000	1408.311287	-0.449209
298.800000	833.129864	-0.162986
298.900000	1028.627187	0.037702
299.000000	1201.844627	-0.096460
299.100000	1195.820746	0.376165
299.200000	904.955172	0.294346
299.300000	1506.100618	-0.004739
299.400000	1004.116297	-0.265981
299.500000	1279.110702	0.224410
299.600000	1426.976114	0.147373
299.700000	1499.376050	0.081817
299.800000	1161.547708	0.025249
299.900000	827.934333	-0.052276
300.000000	1322.299488	-0.048942
300.100000	1111.550382	0.061117
300.200000	1225.623536	0.137058
300.300000	1296.924104	-0.000333
300.400000	1493.223618	0.020027
300.500000	995.937217	0.138899
300.600000	1236.789494	-0.417511
300.700000	1128.807732	0.438675
300.800000	1024.549048	0.043299
300.900000	1015.393574	-0.226231
301.000000	1019.055045	0.129922
301.100000	888.735865	-0.258094
301.200000	1631.104423	-0.215038
301.300000	1273.307852	-0.165519
301.400000	1218.731699	0.272098
301.500000	1262.076159	0.166987
301.600000	709.433129	-0.188360
301.700000	1109.457643	-0.059431
301.800000	545.292990	-0.098076
301.900000	1372.883325	0.311635
302.000000	1028.310742	0.294052
302.100000	958.008950	0.228751
302.200000	1077.334736	0.129913
302.300000	1535.681652	-0.070062
302.400000	1318.870494	0.073731
302.500000	1311.095040	0.033993
302.600000	1065.868344	0.090863
302.700000	1200.813079	0.000248
302.800000	999.543938	0.070041
302.900000	1149.391671	0.144653
303.000000	1047.582644	0.222453
303.100000	1350.014564	0.118925
303.200000	958.144134	-0.345429
303.300000	1257.482497	0.016117
303.400000	1321.428604	0.352023
303.500000	1119.210000	-0.399878
303.600000	1270.122250	0.061001
303.700000	761.895457	0.145456
303.800000	1344.755000	0.089515
303.900000	1228.132502	0.223230
304.000000	1250.868364	0.164803
304.100000	1281.425620	0.152531
304.200000	1161.650501	0.007826
304.300000	964.515153	0.332934
304.400000	1152.535039	0.313845
304.500000	1087.118245	0.053008
304.600000	940.456791	-0.063776
304.700000	974.046984	0.063707
304.800000	1219.008373	0.211606
304.900000	1070.537276	0.313886
305.000000	1200.422812	0.023334
305.100000	1209.334150	-0.026167
305.200000	1499.788731	0.035459
305.300000	1175.014633	0.189625
305.400000	1078.757646	-0.085225
305.500000	1116.672276	0.002304
305.600000	937.261075	0.038302
305.700000	1336.937839	-0.003296
305.800000	1111.487768	0.295514
305.900000	1222.991154	0.060110
306.000000	1065.552193	-0.014661
306.100000	1362.953267	-0.077177
306.200000	1436.958786	0.050491
306.300000	1368.077015	-0.095496
306.400000	991.444927	-0.001785
306.500000	1294.005580	-0.024962
306.600000	1166.889597	0.036599
306.700000	1063.425018	0.101158
306.800000	1376.846279	-0.014848
306.900000	1481.952038	-0.155190
307.000000	1250.192878	0.137111
307.100000	1103.569483	-0.111630
307.200000	960.534196	0.009600
307.300000	1318.387374	-0.103283
307.400000	1287.646146	-0.131050
307.500000	1322.658088	0.211700
307.600000	992.215859	-0.194362
307.700000	1000.927039	0.047863
307.800000	1165.814401	-0.100469
307.900000	1195.502533	-0.074964
308.000000	997.935540	-0.138139
308.100000	1228.015477	0.109796
308.200000	1038.366299	-0.083043
308.300000	731.149988	-0.193895
308.400000	1323.647390	-0.006582
308.500000	1070.829216	0.264755
308.600000	1145.019920	0.056536
308.700000	1333.571144	0.030993
308.800000	1077.766170	-0.236567
308.900000	1176.525992	0.024786
309.000000	1191.509270	-0.010146
309.100000	1130.435332	-0.165150
309.200000	1005.177197	0.039003
309.300000	1042.092265	0.196310
309.400000	1303.385141	0.187845
309.500000	1052.709820	-0.312713
309.600000	1072.449953	0.188146
309.700000	1431.951233	-0.254383
309.800000	1215.049731	-0.157437
309.900000	1010.407309	0.302503
310.000000	1221.659084	0.120787
310.100000	1263.522421	-0.291429
310.200000	862.168447	-0.217434
310.300000	1166.935343	0.196162
310.400000	1149.839769	0.135691
310.500000	1116.768376	-0.405445
310.600000	921.589720	-0.057029
310.700000	1333.798873	-0.177207
310.800000	1272.975534	-0.039578
310.900000	900.633991	-0.027068
311.000000	823.746159	-0.157545
311.100000	891.163630	0.002596
311.200000	1094.780248	-0.015120
311.300000	1155.796196	0.033586
311.400000	1178.023039	0.241833
311.500000	1178.526674	0.236409
311.600000	1303.819249	-0.069929
311.700000	1362.230023	0.012527
311.800000	1021.599791	-0.024963
311.900000	927.229017	0.115718
312.000000	979.192005	-0.100721
312.100000	727.395504	0.164775
312.200000	1312.956583	0.156146
312.300000	1420.518846	-0.024747
312.400000	1092.908132	-0.111990
312.500000	1243.860002	0.234286
312.600000	1427.008553	0.084486
312.700000	1108.369527	0.004803
312.800000	1257.530837	-0.030235
312.900000	1125.841149	-0.054871
313.000000	1225.680927	0.109000
313.100000	1262.620620	0.010136
313.200000	1207.007604	0.119241
313.300000	1164.305016	0.218711
313.400000	1146.369802	-0.180892
313.500000	1216.173324	0.074635
313.600000	916.664194	0.085077
313.700000	1188.494831	0.101835
313.800000	1256.180176	-0.005692
313.900000	1217.985293	0.006338
314.000000	957.146728	-0.089398
314.100000	1258.981503	0.048810
314.200000	1098.183113	0.176656
314.300000	1077.418559	0.009280
314.400000	1132.999963	0.090841
314.500000	1215.629645	0.027078
314.600000	1382.294865	-0.297866
314.700000	1074.788735	0.055180
314.800000	1131.793124	0.250049
314.900000	1594.989479	0.229226
315.000000	1122.439892	0.096370
315.100000	1260.370831	-0.047866
315.200000	1141.011900	0.025142
315.300000	1522.263334	-0.034072
315.400000	1373.602588	0.073262
315.500000	1061.220845	-0.065524
315.600000	1171.850165	-0.032492
315.700000	1476.699551	-0.103285
315.800000	1087.142726	-0.238080
315.900000	1261.242642	0.051884
316.000000	1174.010085	-0.004918
316.100000	1132.161035	-0.175780
316.200000	1325.368734	-0.043756
316.300000	1244.960696	-0.090075
316.400000	1286.404106	-0.015773
316.500000	1130.016978	-0.034341
316.600000	807.219867	0.122319
316.700000	1290.720634	-0.023628
316.800000	1370.221710	0.009349
316.900000	1076.451628	0.083664
317.000000	1047.571542	0.075367
317.100000	1255.098071	0.098547
317.200000	1460.466891	-0.035164
317.300000	1140.587428	-0.248220
317.400000	941.586246	0.185362
317.500000	1286.976791	0.049644
317.600000	1246.151392	0.059592
317.700000	908.127312	0.005434
317.800000	1421.981058	0.274000
317.900000	1266.688957	-0.009380
318.000000	1448.618555	-0.125366
318.100000	910.144108	-0.201071
318.200000	1255.149169	0.076404
318.300000	1332.515657	-0.010219
318.400000	996.294458	0.022319
318.500000	1065.826849	-0.038480
318.600000	1224.243440	0.020854
318.700000	1125.284890	0.025192
318.800000	1012.531985	0.120369
318.900000	1208.088355	0.180813
319.000000	1202.131011	0.040988
319.100000	1239.361239	-0.222580
319.200000	1145.787518	-0.027312
319.300000	1109.293842	0.302304
319.400000	1314.920387	-0.338170
319.500000	894.911331	-0.108375
319.600000	878.948961	-0.034323
319.700000	1311.620809	0.200816
319.800000	1285.291186	-0.046591
319.900000	1046.445353	-0.042141
320.000000	967.146371	0.017873
320.100000	1136.283086	0.178952
320.200000	1222.647797	-0.159880
320.300000	951.839633	0.051278
320.400000	1139.717972	-0.109258
320.500000	1040.958544	0.281025
320.600000	973.633403	-0.114805
320.700000	1142.948891	0.103122
320.800000	1349.162858	-0.103719
320.900000	1169.810880	-0.045470
321.000000	924.569982	0.088338
321.100000	1127.653307	0.201909
321.200000	1220.519242	-0.018210
321.300000	1124.851484	0.109954
321.400000	1022.189559	0.018488
321.500000	1275.140069	0.178894
321.600000	1152.229958	0.163194
321.700000	1154.586859	-0.140503
321.800000	940.506884	-0.111190
321.900000	1492.220729	0.197128
322.000000	1237.220983	0.055512
322.100000	1333.288363	0.012018
322.200000	758.169387	-0.064978
322.300000	1128.966212	-0.080486
322.400000	1259.345419	0.169189
322.500000	1378.430077	0.014743
322.600000	1208.174633	-0.032357
322.700000	1354.568929	0.066839
322.800000	1034.765205	0.166725
322.900000	1026.527774	-0.000732
323.000000	1007.341701	-0.037588
323.100000	1310.762803	-0.022719
323.200000	1074.312439	-0.031927
323.300000	1199.592776	-0.034582
323.400000	1293.996050	0.223092
323.500000	1189.498947	-0.059658
323.600000	1054.202562	0.042534
323.700000	1139.503540	0.036216
323.800000	1266.163255	0.017241
323.900000	1046.635984	-0.135634
324.000000	1133.782646	-0.072349
324.100000	973.907261	0.100436
324.200000	1470.274226	0.099746
324.300000	1313.296092	0.016021
324.400000	981.101802	-0.005027
324.500000	1198.730918	0.055460
324.600000	1300.884368	0.061362
324.700000	1201.846367	-0.223100
324.800000	1339.157856	0.044252
324.900000	1154.646046	0.012842
325.000000	1360.604752	0.040492
325.100000	1039.881300	-0.059243
325.200000	1140.276050	0.027725
325.300000	1309.027476	0.077458
325.400000	1051.823157	-0.050449
325.500000	1193.939927	-0.058609
325.600000	1232.792742	-0.062422
325.700000	1281.955742	-0.178698
325.800000	1060.985930	-0.163733
325.900000	1123.588674	0.074784
326.000000	1278.617236	0.009885
326.100000	1063.924001	-0.132296
326.200000	1201.656511	-0.090422
326.300000	1171.672392	0.153445
326.400000	1315.615212	0.141538
326.500000	1190.613629	-0.059955
326.600000	1061.057546	-0.023674
326.700000	1107.844296	0.138011
326.800000	1028.645503	-0.026277
326.900000	1221.407518	-0.086163
327.000000	1106.434334	0.061508
327.100000	1112.648405	0.105780
327.200000	1292.525570	0.054685
327.300000	964.509945	-0.081510
327.400000	1206.664845	-0.040391
327.500000	1274.715359	-0.057479
327.600000	1183.821410	-0.040947
327.700000	992.080225	0.157407
327.800000	1272.769861	0.025585
327.900000	1097.763637	-0.007393
328.000000	974.834573	-0.166181
328.100000	1228.037018	-0.043114
328.200000	1207.581833	0.078181
328.300000	1282.259199	-0.159310
328.400000	1199.602065	-0.190313
328.500000	1096.448519	0.005855
328.600000	1275.775488	-0.010388
328.700000	1091.621948	0.050633
328.800000	958.476708	-0.081695
328.900000	987.288277	0.204718
329.000000	1027.316682	0.012194
329.100000	1221.596054	0.030069
329.200000	1026.034844	-0.017117
329.300000	1329.993320	0.019648
329.400000	1283.442253	0.149211
329.500000	933.444020	-0.079978
329.600000	1190.893324	0.085539
329.700000	1206.794931	-0.096851
329.800000	1156.055573	0.073590
329.900000	1210.524708	0.054968
330.000000	1212.217173	0.185102
330.100000	1206.538077	0.089128
330.200000	1052.993742	-0.004921
330.300000	1237.730555	-0.078723
330.400000	1100.577695	-0.013215
330.500000	1278.478594	0.038617
330.600000	1180.012856	-0.001019
330.700000	1143.302257	-0.073730
330.800000	1271.976972	0.182908
330.900000	1255.773271	-0.012557
331.000000	1185.289605	-0.100400
331.100000	1031.690347	0.118645
331.200000	1329.004608	0.089456
331.300000	1235.603467	-0.165744
331.400000	1095.893190	-0.156978
331.500000	1158.773023	0.216714
331.600000	1027.095153	0.058053
331.700000	1222.588383	0.041441
331.800000	1148.934776	0.025024
331.900000	1075.361483	0.039100
332.000000	1261.095814	-0.038370
332.100000	1112.218707	-0.031201
332.200000	1244.058886	-0.007028
332.300000	1080.587734	0.108620
332.400000	1205.065863	0.032523
332.500000	1115.396248	-0.036956
332.600000	1098.320936	0.024588
332.700000	1223.727276	0.196915
332.800000	1134.023503	-0.061463
332.900000	1120.237237	0.115099
333.000000	1169.039866	0.131780
333.100000	1401.574105	-0.153566
333.200000	1394.436360	0.006269
333.300000	1045.921707	-0.032108
333.400000	1232.814693	0.186702
333.500000	1275.361824	-0.132603
333.600000	1299.312721	-0.056460
333.700000	1247.911740	0.045333
333.800000	1207.890885	0.091794
333.900000	1220.043569	-0.023716
334.000000	1056.363554	-0.026562
334.100000	1149.303331	-0.161284
334.200000	1161.798155	0.090358
334.300000	1184.517896	-0.124205
334.400000	1212.505605	-0.005287
334.500000	1029.019990	-0.022707
334.600000	1264.003110	-0.003889
334.700000	1271.354241	0.005845
334.800000	1146.451572	-0.055435
334.900000	1169.937477	0.044271
335.000000	1132.576325	0.074291
335.100000	1122.284409	0.015693
335.200000	994.734604	0.056366
335.300000	1141.352071	0.059558
335.400000	1248.875454	-0.110991
335.500000	1114.551278	-0.010822
335.600000	1239.493579	0.175040
335.700000	1063.937941	-0.029528
335.800000	1294.896347	-0.070063
335.900000	1127.715217	0.004982
336.000000	1156.549330	0.019962
336.100000	1311.057676	0.082848
336.200000	1175.696839	-0.113384
336.300000	1053.709823	0.047041
336.400000	1152.570390	0.023488
336.500000	1270.715396	-0.030045
336.600000	1193.826512	0.081683
336.700000	1186.677634	-0.088648
336.800000	1178.758155	0.002998
336.900000	1149.466957	-0.063995
337.000000	991.872380	0.036408
337.100000	1097.438716	0.185983
337.200000	1210.507167	-0.001974
337.300000	1151.354600	-0.058890
337.400000	1123.303222	0.043612
337.500000	1227.144938	0.058762
337.600000	1134.734116	-0.163258
337.700000	1175.702209	-0.046721
337.800000	1057.175822	0.081824
337.900000	1065.045443	0.022016
338.000000	1158.041488	0.053353
338.100000	984.181643	-0.060091
338.200000	1211.078329	0.045694
338.300000	1198.390666	-0.017512
338.400000	1156.562234	0.006487
338.500000	1230.450555	0.054203
338.600000	1140.375356	-0.059181
338.700000	1131.751894	0.000244
338.800000	1289.375039	0.121250
338.900000	1111.213825	0.048622
339.000000	1148.234431	0.049643
339.100000	1057.379939	-0.209657
339.200000	1127.453173	0.126839
339.300000	1170.411023	0.142906
339.400000	1204.391954	0.030320
339.500000	1239.613454	0.032849
339.600000	1186.564563	-0.064903
339.700000	1201.056700	0.023776
339.800000	1155.713890	0.100808
339.900000	1217.079102	0.069888
340.000000	1064.621366	0.039490
340.100000	1147.947979	0.017407
340.200000	1172.405871	-0.008034
340.300000	1153.179599	-0.031716
340.400000	1188.434012	0.049328
340.500000	1129.602564	-0.012352
340.600000	1242.114964	0.004149
340.700000	1152.620481	0.003082
340.800000	1042.104203	0.015419
340.900000	1248.008777	0.067352
341.000000	1274.489374	0.020381
341.100000	1175.489960	0.075606
341.200000	1153.399981	0.071906
341.300000	1163.798547	0.015172
341.400000	1054.411243	0.017731
341.500000	1032.188110	-0.034091
341.600000	1282.145118	0.069803
341.700000	1149.790906	-0.017956
341.800000	1122.950358	-0.039178
341.900000	1082.873260	0.061442
342.000000	1232.384995	-0.017403
342.100000	1172.705193	0.054445
342.200000	1137.159979	0.064107
342.300000	1219.563254	0.052024
342.400000	1245.557191	-0.102714
342.500000	1193.581092	-0.084534
342.600000	1086.161810	0.048551
342.700000	1189.390836	0.025264
342.800000	1181.444031	0.056069
342.900000	1078.235405	0.034016
343.000000	1109.580399	-0.065776
343.100000	1149.353215	0.071942
343.200000	1235.434945	-0.116805
343.300000	1217.655042	-0.021445
343.400000	1185.034706	-0.041249
343.500000	1273.573206	0.039600
343.600000	1055.056285	0.063360
343.700000	1151.355299	0.016871
343.800000	1190.301224	-0.048459
343.900000	1249.346262	-0.047879
344.000000	1125.695283	0.077057
344.100000	1134.520215	0.029489
344.200000	1286.591475	-0.025282
344.300000	1169.350570	-0.022893
344.400000	1071.767919	0.069210
344.500000	1175.656103	0.070887
344.600000	1160.173858	0.038097
344.700000	1198.020746	-0.064126
344.800000	1109.927823	-0.039719
344.900000	1131.401264	-0.008482
345.000000	1184.075868	0.128781
345.100000	1205.235261	-0.043553
345.200000	1143.815161	0.071976
345.300000	1139.401994	-0.073928
345.400000	1255.773846	-0.002794
345.500000	1126.785814	-0.010709
345.600000	1123.047022	0.012594
345.700000	1192.511053	0.018687
345.800000	1171.556467	0.073152
345.900000	1122.607726	0.014150
346.000000	1190.867650	0.090802
346.100000	1248.189772	0.000579
346.200000	1029.941290	0.026344
346.300000	1119.599908	0.078850
346.400000	1170.327026	0.070919
346.500000	1107.898837	-0.104787
346.600000	1188.773570	-0.072586
346.700000	1055.104430	0.077167
346.800000	1251.569025	-0.012674
346.900000	1123.848901	-0.023087
347.000000	1052.822200	-0.097302
347.100000	1157.571652	0.056220
347.200000	1206.181054	0.006869
347.300000	1110.645237	0.094545
347.400000	1207.314987	0.039613
347.500000	1104.643678	-0.101305
347.600000	1186.564611	0.073008
347.700000	1158.667167	0.060168
347.800000	1183.873954	0.016713
347.900000	1115.363000	0.070974
348.000000	1140.624405	-0.007923
348.100000	1165.904612	0.032988
348.200000	1181.425324	0.007348
348.300000	1176.289036	0.000410
348.400000	1183.554608	0.038682
348.500000	1126.770401	0.109637
348.600000	1131.983912	0.056088
348.700000	1213.443033	0.005178
348.800000	1149.845993	-0.054775
348.900000	1155.919567	-0.045421
349.000000	1289.547186	-0.004923
349.100000	1164.827151	0.031761
349.200000	1149.494194	-0.008290
349.300000	1133.213562	0.073795
349.400000	1133.603620	0.021958
349.500000	1235.993657	0.060827
349.600000	1158.348812	0.006709
349.700000	1131.539084	0.051666
349.800000	1130.473876	0.022246
349.900000	1221.149987	0.008711
350.000000	1179.839409	-0.009279
350.100000	1087.466534	0.037302
350.200000	1182.994358	0.017479
350.300000	1192.593509	0.012949
350.400000	1213.672483	-0.062436
350.500000	1233.468467	-0.011348
350.600000	1127.762288	0.038570
350.700000	1146.541160	0.022191
350.800000	1153.715825	0.054453
350.900000	1204.591459	0.041518
351.000000	1115.078485	0.059001
351.100000	1128.801193	-0.009626
351.200000	1146.060620	0.046101
351.300000	1194.475398	-0.003531
351.400000	1183.970862	0.019045
351.500000	1169.783258	0.043599
351.600000	1140.874971	0.021462
351.700000	1212.627666	0.043421
351.800000	1143.956131	-0.009716
351.900000	1187.362427	-0.067998
352.000000	1088.183919	0.015103
352.100000	1233.684624	-0.000986
352.200000	1197.568629	0.040294
352.300000	1202.826301	0.011258
352.400000	1174.840208	0.036581
352.500000	1130.340655	-0.022449
352.600000	1205.205456	-0.076794
352.700000	1210.884338	-0.035330
352.800000	1133.337349	-0.011256
352.900000	1135.229187	0.017705
353.000000	1174.685890	0.003536
353.100000	1154.690233	-0.007471
353.200000	1212.219757	-0.053924
353.300000	1150.687923	0.043819
353.400000	1170.125599	0.011976
353.500000	1177.994642	0.030125
353.600000	1181.727507	0.055212
353.700000	1201.296670	-0.079689
353.800000	1188.135242	0.069644
353.900000	1162.827896	0.018237
354.000000	1172.817011	-0.033246
354.100000	1146.285673	0.008887
354.200000	1138.920091	-0.034634
354.300000	1185.868220	-0.017147
354.400000	1211.077271	-0.009992
354.500000	1183.808608	0.047041
354.600000	1166.086127	0.053646
354.700000	1184.203965	-0.012070
354.800000	1143.483037	0.056132
354.900000	1122.779024	-0.033940
355.000000	1144.157969	-0.041194
355.100000	1165.254462	0.089650
355.200000	1181.705424	0.028113
355.300000	1200.537124	-0.028546
355.400000	1064.841567	-0.041983
355.500000	1094.576804	0.025128
355.600000	1170.847591	0.022193
355.700000	1149.251491	0.029790
355.800000	1111.019361	-0.024059
355.900000	1113.667623	0.024528
356.000000	1187.207456	0.068358
356.100000	1073.230874	0.008782
356.200000	1177.557731	0.004175
356.300000	1150.713612	0.001042
356.400000	1090.197907	-0.031156
356.500000	1160.561183	0.024538
356.600000	1134.758619	-0.010156
356.700000	1126.708654	0.001574
356.800000	1115.581424	0.008416
356.900000	1173.360611	0.014113
357.000000	1154.313898	0.061793
357.100000	1168.377091	-0.041025
357.200000	1098.284948	-0.015391
357.300000	1145.336860	0.023878
357.400000	1186.450551	0.052921
357.500000	1183.418904	0.006577
357.600000	1149.202262	-0.008289
357.700000	1173.730506	0.025687
357.800000	1144.088011	0.009919
357.900000	1206.426467	0.030232
358.000000	1191.794289	0.002481
358.100000	1176.703672	0.007616
358.200000	1180.612194	-0.062058
358.300000	1187.070467	0.003517
358.400000	1157.166286	0.032387
358.500000	1155.234589	-0.051011
358.600000	1139.196992	-0.004835
358.700000	1138.326359	0.009004
358.800000	1173.439704	-0.024322
358.900000	1176.607617	0.069667
359.000000	1171.894942	-0.010842
359.100000	1188.764309	0.020353
359.200000	1187.161474	-0.024884
359.300000	1145.834754	0.025032
359.400000	1145.286857	-0.007516
359.500000	1199.967708	0.020875
359.600000	1128.166694	0.067134
359.700000	1147.217923	0.094399
359.800000	1159.307170	0.012146
359.900000	1094.604638	0.068916
360.000000	1134.838435	0.036741
360.100000	1232.592838	0.007090
360.200000	1134.910054	0.020122
360.300000	1140.243097	0.025548
360.400000	1176.348555	-0.006311
360.500000	1210.167438	0.013202
360.600000	1170.120282	0.017630
360.700000	1193.994234	0.007651
360.800000	1156.656222	0.002559
360.900000	1186.992342	0.004916
361.000000	1129.672918	0.045736
361.100000	1212.858658	-0.004161
361.200000	1167.746189	-0.017677
361.300000	1151.186345	0.026739
361.400000	1185.373370	-0.000518
361.500000	1154.132734	-0.010778
361.600000	1192.277900	-0.011802
361.700000	1143.323532	-0.036989
361.800000	1196.240571	0.038782
361.900000	1168.330676	0.004207
362.000000	1149.287482	0.014470
362.100000	1101.841160	-0.036626
362.200000	1140.308545	0.001800
362.300000	1146.048195	-0.016812
362.400000	1196.463477	-0.043177
362.500000	1181.495472	0.035729
362.600000	1172.689235	0.031325
362.700000	1158.284191	0.024526
362.800000	1196.792770	0.048467
362.900000	1165.589489	-0.014498
363.000000	1139.685598	-0.021479
363.100000	1119.443236	-0.003602
363.200000	1169.045500	0.064710
363.300000	1164.822105	-0.013390
363.400000	1209.981456	0.024819
363.500000	1188.390526	0.019741
363.600000	1095.154205	-0.018700
363.700000	1188.987900	0.026365
363.800000	1177.597334	0.000326
363.900000	1172.101365	-0.014939
364.000000	1186.342110	-0.015644
364.100000	1156.854153	-0.004308
364.200000	1155.075577	0.009527
364.300000	1214.806653	0.027681
364.400000	1130.620713	0.029454
364.500000	1179.889743	-0.025715
364.600000	1170.951867	-0.020961
364.700000	1193.108846	0.015427
364.800000	1132.097765	0.014906
364.900000	1143.530243	0.025227
365.000000	1190.046559	-0.004086
365.100000	1145.940877	-0.000475
365.200000	1149.098745	0.013801
365.300000	1116.202956	0.032526
365.400000	1146.386983	0.029484
365.500000	1134.778411	0.022737
365.600000	1212.899029	0.024090
365.700000	1193.764445	0.008815
365.800000	1107.043841	0.009884
365.900000	1076.850713	0.022492
366.000000	1167.113751	0.011912
366.100000	1165.039618	0.026013
366.200000	1162.340894	0.047678
366.300000	1167.112120	0.009776
366.400000	1149.988031	-0.008900
366.500000	1112.356978	0.052864
366.600000	1178.938537	-0.028718
366.700000	1178.235776	0.026462
366.800000	1170.150868	-0.007546
366.900000	1175.676134	-0.003542
367.000000	1164.228310	0.007864
367.100000	1162.997385	0.010274
367.200000	1158.128374	-0.014818
367.300000	1170.924779	0.021879
367.400000	1175.047753	-0.024685
367.500000	1183.218295	-0.004051
367.600000	1154.742929	0.049353
367.700000	1137.191273	0.006937
367.800000	1166.306032	0.005061
367.900000	1225.739235	-0.033573
368.000000	1156.812157	0.051873
368.100000	1146.002592	0.045306
368.200000	1152.803532	0.010683
368.300000	1162.614886	0.024548
368.400000	1179.913073	0.026778
368.500000	1166.982676	-0.005529
368.600000	1160.539782	0.059576
368.700000	1137.206148	-0.021495
368.800000	1155.078414	0.035390
368.900000	1159.267120	0.011973
369.000000	1185.647846	0.039931
369.100000	1167.621229	0.017030
369.200000	1166.705521	-0.002750
369.300000	1160.618799	-0.011287
369.400000	1167.428318	0.045110
369.500000	1150.610359	0.022441
369.600000	1157.552206	-0.012471
369.700000	1174.565703	0.015835
369.800000	1156.177132	-0.011338
369.900000	1166.745370	0.065731
370.000000	1167.856815	-0.010124
370.100000	1161.616502	-0.012171
370.200000	1168.912567	0.008859
370.300000	1162.263519	0.013927
370.400000	1189.260103	0.003779
370.500000	1185.787557	0.016349
370.600000	1136.933336	-0.029416
370.700000	1146.062979	0.024307
370.800000	1166.786053	0.010402
370.900000	1143.812910	0.009869
371.000000	1143.170116	-0.000847
371.100000	1152.167282	-0.012560
371.200000	1184.631082	0.036311
371.300000	1140.988501	0.037154
371.400000	1121.498448	-0.001662
371.500000	1165.204002	-0.005959
371.600000	1124.195560	0.003228
371.700000	1187.775572	0.019127
371.800000	1158.556978	0.036286
371.900000	1169.451910	-0.014856
372.000000	1152.861832	0.032338
372.100000	1201.395816	-0.000957
372.200000	1175.293320	0.019885
372.300000	1175.665722	0.000123
372.400000	1146.801328	-0.005772
372.500000	1136.098295	0.014586
372.600000	1183.228291	0.019483
372.700000	1177.942733	-0.008235
372.800000	1152.833610	0.001784
372.900000	1156.464507	0.013795
373.000000	1195.373813	0.034598
373.100000	1190.294060	0.063676
373.200000	1139.080010	0.012481
373.300000	1152.906424	-0.001708
373.400000	1166.217986	-0.029613
373.500000	1143.707319	0.006331
373.600000	1181.834509	0.024018
373.700000	1130.996695	0.015190
373.800000	1133.680493	-0.004422
373.900000	1125.447930	0.020706
374.000000	1184.249546	0.006387
374.100000	1171.234749	-0.012799
374.200000	1128.554994	0.025679
374.300000	1138.692728	0.005335
374.400000	1173.913290	0.001624
374.500000	1170.097667	0.015095
374.600000	1134.228169	0.049125
374.700000	1126.547520	0.007247
374.800000	1152.383147	0.015536
374.900000	1199.425479	0.011778
375.000000	1118.416209	0.007885
375.100000	1131.267916	-0.013828
375.200000	1152.208528	0.020185
375.300000	1149.578114	0.000900
375.400000	1161.044584	0.037264
375.500000	1158.477049	0.004417
375.600000	1121.341159	0.011336
375.700000	1148.536553	-0.000768
375.800000	1165.077408	-0.005417
375.900000	1173.766723	0.011882
376.000000	1196.890102	0.019254
376.100000	1136.654716	0.015423
376.200000	1171.427942	-0.007014
376.300000	1153.489448	0.008169
376.400000	1142.167789	0.018771
376.500000	1151.856330	0.007399
376.600000	1157.877444	-0.010722
376.700000	1184.974075	0.011003
376.800000	1196.009187	0.001427
376.900000	1167.714610	0.035237
377.000000	1183.928241	0.018678
377.100000	1181.625138	-0.000116
377.200000	1174.102643	-0.032457
377.300000	1154.343720	0.022546
377.400000	1162.377210	0.023732
377.500000	1176.783599	0.009118
377.600000	1148.103056	-0.012372
377.700000	1181.397793	0.021475
377.800000	1165.984130	0.017536
377.900000	1150.433386	0.019355
378.000000	1146.464355	-0.004142
378.100000	1201.740931	0.009483
378.200000	1160.437145	0.028171
378.300000	1159.305279	0.037165
378.400000	1175.232357	0.009477
378.500000	1182.546889	0.013719
378.600000	1185.636034	0.019989
378.700000	1157.531213	0.024701
378.800000	1158.604978	0.023737
378.900000	1178.509214	0.000201
379.000000	1164.432397	-0.003549
379.100000	1193.734008	0.025634
379.200000	1166.056156	0.010117
379.300000	1156.958272	0.007910
379.400000	1152.581217	0.008763
379.500000	1151.883664	0.009858
379.600000	1210.690876	0.034485
379.700000	1155.179010	0.016154
379.800000	1141.861874	0.013188
379.900000	1142.606848	-0.022487
380.000000	1172.378696	-0.002698
380.100000	1146.310530	0.010008
380.200000	1149.321996	0.028363
380.300000	1166.490271	0.010674
380.400000	1148.710382	0.012247
380.500000	1158.993531	0.011659
380.600000	1162.055407	0.021375
380.700000	1143.353553	-0.008279
380.800000	1158.792004	0.012712
380.900000	1194.566213	0.017094
381.000000	1171.949956	0.003950
381.100000	1156.712140	0.011689
381.200000	1139.581265	0.010192
381.300000	1158.152772	-0.007557
381.400000	1171.073433	0.000294
381.500000	1187.366545	0.016064
381.600000	1129.794222	-0.002029
381.700000	1148.550249	0.004596
381.800000	1174.879501	-0.002236
381.900000	1187.019739	0.023121
382.000000	1155.849576	0.000502
382.100000	1140.444257	0.010892
382.200000	1162.785722	0.003564
382.300000	1163.746949	0.005311
382.400000	1172.150160	0.011130
382.500000	1178.069380	0.011028
382.600000	1159.270826	0.004099
382.700000	1135.401128	0.006983
382.800000	1160.897236	0.002438
382.900000	1168.251000	0.016934
383.000000	1150.269386	0.009863
383.100000	1162.710102	-0.011573
383.200000	1185.775210	0.004081
383.300000	1155.614080	0.013432
383.400000	1169.317590	0.032717
383.500000	1132.157700	-0.011937
383.600000	1153.034822	0.011585
383.700000	1181.955802	0.019565
383.800000	1149.786655	-0.010337
383.900000	1142.838363	0.018939
384.000000	1132.891392	0.017795
384.100000	1174.244232	0.008722
384.200000	1142.467740	0.022632
384.300000	1146.274336	0.011654
384.400000	1163.699551	0.013426
384.500000	1151.437874	-0.004829
384.600000	1162.424106	0.000597
384.700000	1174.809259	0.013841
384.800000	1149.720451	0.033222
384.900000	1139.140581	0.013285
385.000000	1139.947530	0.001718
385.100000	1169.797721	0.008051
385.200000	1173.581379	0.012688
385.300000	1158.504161	0.013153
385.400000	1167.065950	-0.014660
385.500000	1153.440235	0.003657
385.600000	1183.016499	0.018198
385.700000	1130.864987	0.009395
385.800000	1149.828143	0.010554
385.900000	1158.430153	-0.003675
386.000000	1178.073980	-0.003354
386.100000	1154.080891	0.001328
386.200000	1160.430520	0.014154
386.300000	1156.846193	0.009084
386.400000	1147.558510	-0.006190
386.500000	1161.172239	0.013299
386.600000	1161.102469	0.017611
386.700000	1141.768376	0.013195
386.800000	1169.484363	-0.002461
386.900000	1158.677031	-0.001736
387.000000	1170.363455	0.023960
387.100000	1170.886649	0.023267
387.200000	1134.908636	0.012172
387.300000	1164.909344	0.011430
387.400000	1155.630243	0.001627
387.500000	1180.456190	0.010551
387.600000	1143.972141	0.001180
387.700000	1158.528519	0.021594
387.800000	1153.133066	0.004784
387.900000	1164.910705	0.000603
388.000000	1166.439096	0.023761
388.100000	1176.515175	0.023390
388.200000	1143.689634	-0.016263
388.300000	1165.321702	0.012495
388.400000	1161.583693	0.019382
388.500000	1171.721451	0.016738
388.600000	1154.012113	0.005312
388.700000	1170.904606	0.014683
388.800000	1167.981603	0.004514
388.900000	1184.510870	0.009829
389.000000	1162.619870	0.010939
389.100000	1150.567049	-0.005083
389.200000	1160.877603	-0.001537
389.300000	1139.441804	0.006162
389.400000	1156.001006	0.012382
389.500000	1159.432851	0.004438
389.600000	1157.168920	0.014737
389.700000	1165.371174	-0.001723
389.800000	1152.090942	-0.003588
389.900000	1154.580853	0.027174
390.000000	1141.014497	0.001757
390.100000	1151.671945	-0.004294
390.200000	1167.145469	0.006887
390.300000	1157.645332	0.010863
390.400000	1143.160980	0.019663
390.500000	1164.653969	-0.002849
390.600000	1150.902047	0.021813
390.700000	1175.356352	0.009942
390.800000	1160.589939	0.014201
390.900000	1146.417700	0.014451
391.000000	1162.602584	-0.003569
391.100000	1168.563677	0.012981
391.200000	1179.895891	-0.003329
391.300000	1162.716163	-0.002625
391.400000	1152.576857	0.020884
391.500000	1160.783144	-0.007784
391.600000	1159.722088	0.006451
391.700000	1170.710116	-0.000547
391.800000	1187.494354	-0.000158
391.900000	1161.674463	-0.008150
392.000000	1163.408082	0.011133
392.100000	1159.139365	0.012122
392.200000	1159.070193	0.029997
392.300000	1151.584321	0.006237
392.400000	1147.357314	-0.003509
392.500000	1163.700460	0.010296
392.600000	1177.547412	0.022389
392.700000	1149.632455	-0.005230
392.800000	1162.350373	0.021197
392.900000	1150.004805	0.016826
393.000000	1169.493890	0.013736
393.100000	1173.321668	0.006754
393.200000	1128.467352	0.019035
393.300000	1150.771555	0.017610
393.400000	1163.336330	-0.002121
393.500000	1179.671870	0.035800
393.600000	1168.859489	0.003706
393.700000	1153.407822	0.013429
393.800000	1164.945012	0.010152
393.900000	1162.482636	0.007429
394.000000	1159.030693	-0.003681
394.100000	1157.504557	0.012212
394.200000	1146.446574	-0.001608
394.300000	1164.591861	0.008837
394.400000	1168.687200	0.007956
394.500000	1167.627602	0.017105
394.600000	1155.359560	-0.004602
394.700000	1141.022252	0.005445
394.800000	1154.608582	0.002221
394.900000	1177.744842	-0.012725
395.000000	1149.215129	0.011277
395.100000	1146.217642	0.024418
395.200000	1160.265221	0.013501
395.300000	1164.437921	-0.011172
395.400000	1165.119952	0.013941
395.500000	1158.098908	0.006204
395.600000	1165.183215	0.009099
395.700000	1167.550822	-0.004867
395.800000	1156.158215	0.013167
395.900000	1160.862843	0.018955
396.000000	1159.843547	0.001899
396.100000	1162.379225	0.016585
396.200000	1159.586312	0.010541
396.300000	1162.828857	0.001995
396.400000	1165.048192	0.010941
396.500000	1160.923439	-0.000728
396.600000	1163.978107	0.002862
396.700000	1178.506103	-0.001772
396.800000	1158.979921	0.001243
396.900000	1160.385338	0.031470
397.000000	1180.510080	0.011655
397.100000	1160.811412	0.008504
397.200000	1162.061302	-0.007101
397.300000	1162.849870	0.008470
397.400000	1156.845782	0.013781
397.500000	1159.840908	-0.000665
397.600000	1161.606196	0.007256
397.700000	1161.325993	0.024917
397.800000	1145.435726	-0.001131
397.900000	1163.517871	0.007173
398.000000	1170.146626	0.013507
398.100000	1153.939490	-0.000166
398.200000	1161.529521	0.021291
398.300000	1159.274107	0.018946
398.400000	1154.746822	-0.000322
398.500000	1161.038794	-0.000292
398.600000	1148.970023	0.016221
398.700000	1154.109060	0.013729
398.800000	1157.069164	0.009207
398.900000	1171.926163	-0.003009
399.000000	1163.809723	0.012253
399.100000	1155.161180	0.001248
399.200000	1158.821525	0.014538
399.300000	1166.020851	0.012674
399.400000	1164.540008	-0.007082
399.500000	1145.488892	0.009301
399.600000	1150.209073	0.008754
399.700000	1153.385668	0.015949
399.800000	1165.519831	0.003916
399.900000	1162.297077	-0.001905
400.000000	1168.974612	0.012467
400.100000	1163.191120	0.004138
400.200000	1157.306006	-0.003523
400.300000	1152.144449	0.013926
400.400000	1164.823987	-0.002200
400.500000	1163.614013	0.012614
400.600000	1164.761013	0.002905
400.700000	1146.936633	0.008961
400.800000	1160.397323	0.004516
400.900000	1164.185644	0.009111
401.000000	1157.226915	0.015086
401.100000	1174.642687	0.005371
401.200000	1161.774202	0.000424
401.300000	1150.057727	0.004914
401.400000	1158.449892	0.007059
401.500000	1174.012762	0.004413
401.600000	1150.713712	0.015680
401.700000	1156.832148	0.005248
401.800000	1176.171450	0.010474
401.900000	1172.329286	0.021898
402.000000	1152.421357	0.009406
402.100000	1164.755636	0.010993
402.200000	1155.912708	0.010594
402.300000	1157.256062	0.001901
402.400000	1165.061813	0.007195
402.500000	1152.288561	0.008417
402.600000	1147.482441	0.015485
402.700000	1170.843999	0.003314
402.800000	1171.655130	0.003559
402.900000	1154.801495	0.001254
403.000000	1161.796772	0.002216
403.100000	1150.600627	0.012723
403.200000	1163.954619	0.009145
403.300000	1153.213904	0.009556
403.400000	1162.723427	0.005931
403.500000	1155.164652	0.005097
403.600000	1157.375354	0.005891
403.700000	1161.476639	0.009443
403.800000	1158.885385	0.002672
403.900000	1152.208128	0.005488
404.000000	1163.326105	0.009608
404.100000	1160.409132	0.000259
404.200000	1159.858323	0.004679
404.300000	1155.000549	0.010546
404.400000	1145.506421	0.005809
404.500000	1169.784328	0.013364
404.600000	1152.874461	0.003193
404.700000	1161.568184	0.001087
404.800000	1152.191536	0.010480
404.900000	1156.433099	9.698229E-5
405.000000	1150.819981	-0.004094
405.100000	1160.923396	0.003849
405.200000	1155.022509	0.005717
405.300000	1167.916847	0.003016
405.400000	1160.298276	0.005789
405.500000	1169.853577	0.019089
405.600000	1169.373945	0.008121
405.700000	1157.058310	0.008422
405.800000	1150.996951	0.008527
405.900000	1157.840484	-0.001722
406.000000	1164.684591	-0.000738
406.100000	1157.513237	0.012565
406.200000	1158.578218	0.014083
406.300000	1168.750166	0.009249
406.400000	1168.574543	0.011970
406.500000	1156.563596	0.005239
406.600000	1170.837532	0.004211
406.700000	1151.480737	0.011660
406.800000	1165.985753	0.004388
406.900000	1173.007548	0.004530
407.000000	1164.895614	0.009123
407.100000	1157.094231	0.004759
407.200000	1157.986822	0.014531
407.300000	1160.440181	0.011383
407.400000	1160.726331	0.008497
407.500000	1159.976304	0.004374
407.600000	1160.550721	0.002575
407.700000	1154.437426	0.003863
407.800000	1164.516118	-0.000172
407.900000	1162.628193	0.006625
408.000000	1156.823570	0.008072
408.100000	1155.087856	0.008635
408.200000	1153.593648	0.006853
408.300000	1162.414455	0.007968
408.400000	1160.781830	0.006753
408.500000	1164.268740	0.008789
408.600000	1164.391058	0.009961
408.700000	1161.454569	0.002226
408.800000	1148.570181	0.005346
408.900000	1156.149608	0.006695
409.000000	1163.894841	0.007892
409.100000	1160.958063	0.009227
409.200000	1165.495187	-0.001167
409.300000	1164.399230	0.010213
409.400000	1157.564363	0.004306
409.500000	1153.609948	0.001996
409.600000	1161.573387	0.014167
409.700000	1162.419456	0.006107
409.800000	1160.349750	0.005283
409.900000	1164.287005	0.003751
410.000000	1156.472912	0.006342
410.100000	1163.758091	0.001921
410.200000	1168.953474	0.000400
410.300000	1167.466644	0.004527
410.400000	1164.417682	0.002647
410.500000	1163.192313	0.004978
410.600000	1162.367422	0.008531
410.700000	1157.684767	0.005735
410.800000	1154.082732	0.004980
410.900000	1160.382032	0.010244
411.000000	1156.327524	0.005934
411.100000	1163.718935	0.008383
411.200000	1159.827252	0.008917
411.300000	1161.414447	0.003161
411.400000	1162.615762	0.001375
411.500000	1163.852305	0.007932
411.600000	1156.105688	0.005435
411.700000	1157.808748	0.014279
411.800000	1155.634329	0.013486
411.900000	1164.014973	0.009172
412.000000	1169.369119	0.009658
412.100000	1162.072833	0.003692
412.200000	1160.571290	0.011405
412.300000	1159.714953	0.008288
412.400000	1160.709121	0.007157
412.500000	1153.587791	0.004779
412.600000	1160.680501	0.005957
412.700000	1160.004845	0.010242
412.800000	1169.322118	0.007108
412.900000	1161.785442	0.008652
413.000000	1159.762940	0.010556
413.100000	1161.428049	0.002178
413.200000	1162.019009	0.006547
413.300000	1157.869197	-0.001366
413.400000	1158.988597	0.004281
413.500000	1162.545223	0.010101
413.600000	1159.281975	0.010376
413.700000	1155.084741	0.007531
413.800000	1162.529187	0.005811
413.900000	1153.881990	0.007966
414.000000	1164.988417	0.006381
414.100000	1165.923863	0.006596
414.200000	1161.556174	0.001405
414.300000	1157.072252	0.005159
414.400000	1157.302447	0.006509
414.500000	1157.461449	0.009994
414.600000	1161.528517	0.006189
414.700000	1158.023381	0.006643
414.800000	1163.849365	0.001567
414.900000	1157.921825	0.002922
415.000000	1168.526847	0.006611
415.100000	1163.676728	0.005330
415.200000	1161.035887	-0.001734
415.300000	1161.100564	0.008437
415.400000	1163.932125	0.012346
415.500000	1158.556266	0.004770
415.600000	1161.180462	0.008230
415.700000	1165.423789	0.006758
415.800000	1162.369795	0.008189
415.900000	1163.103620	0.006609
416.000000	1155.018561	0.006441
416.100000	1160.047270	0.006041
416.200000	1157.330609	0.003290
416.300000	1156.834967	0.006440
416.400000	1164.557589	0.005143
416.500000	1164.242141	0.003968
416.600000	1160.078565	0.008978
416.700000	1159.622307	0.006362
416.800000	1154.498009	0.011756
416.900000	1166.048801	0.008317
417.000000	1155.288951	-0.003406
417.100000	1158.391633	0.008270
417.200000	1157.391470	0.007622
417.300000	1158.234604	0.008358
417.400000	1160.374890	0.009540
417.500000	1160.474206	0.009060
417.600000	1162.164804	0.004020
417.700000	1164.376598	0.008507
417.800000	1158.560903	0.008009
417.900000	1164.003442	0.005674
418.000000	1161.133528	0.005577
418.100000	1156.814702	0.009031
418.200000	1158.904389	0.009913
418.300000	1159.106557	0.001408
418.400000	1157.580401	0.005428
418.500000	1160.770903	0.004424
418.600000	1163.100463	0.001977
418.700000	1160.552974	0.004311
418.800000	1163.024496	0.002179
418.900000	1160.011644	0.001935
419.000000	1160.888744	0.008375
419.100000	1158.500520	0.006514
419.200000	1156.351620	0.008920
419.300000	1161.290729	0.001240
419.400000	1157.354690	0.008433
419.500000	1163.076509	0.005371
419.600000	1162.480827	0.004656
419.700000	1157.918282	0.005193
419.800000	1161.925898	0.005783
419.900000	1158.198580	0.004260
420.000000	1161.500134	0.005035
420.100000	1159.143053	0.007575
420.200000	1157.955682	0.009521
420.300000	1166.040887	0.007211
420.400000	1163.605342	0.007568
420.500000	1160.643421	0.009849
420.600000	1162.341439	0.004333
420.700000	1160.632201	0.005535
420.800000	1160.025892	0.005544
420.900000	1159.484350	0.006412
421.000000	1158.677553	0.007142
421.100000	1157.804829	0.002828
421.200000	1162.423778	0.003505
421.300000	1164.091322	0.006265
421.400000	1162.441021	0.005603
421.500000	1161.355879	0.007450
421.600000	1162.733991	0.009513
421.700000	1159.607276	0.006048
421.800000	1158.202639	0.003337
421.900000	1161.196585	0.005370
422.000000	1158.604647	0.009132
422.100000	1162.628861	0.006748
422.200000	1165.851422	0.005046
422.300000	1159.005336	0.006348
422.400000	1158.525905	0.003557
422.500000	1160.858116	0.004296
422.600000	1158.643303	0.008229
422.700000	1161.928463	0.003542
422.800000	1159.967126	0.005913
422.900000	1160.375286	0.005867
423.000000	1159.112837	0.004025
423.100000	1158.594923	0.010592
423.200000	1161.252529	0.004860
423.300000	1156.743025	0.004866
423.400000	1159.815077	0.001842
423.500000	1155.961086	0.002764
423.600000	1159.975271	0.002950
423.700000	1163.633511	0.005530
423.800000	1159.865253	0.004643
423.900000	1161.830936	0.009148
424.000000	1164.235891	0.004445
424.100000	1160.340199	0.003649
424.200000	1157.006547	0.004731
424.300000	1159.432551	0.007219
424.400000	1164.335527	0.003876
424.500000	1163.243476	0.003674
424.600000	1159.920259	0.005672
424.700000	1158.075634	0.005719
424.800000	1159.068578	0.004238
424.900000	1159.815956	0.009352
425.000000	1162.981471	0.006510
425.100000	1165.490837	0.001610
425.200000	1159.212753	0.005231
425.300000	1160.400786	0.005345
425.400000	1158.564849	0.006446
425.500000	1162.480560	0.005830
425.600000	1156.990533	0.006871
425.700000	1157.938545	0.007530
425.800000	1162.511245	0.005565
425.900000	1158.646027	0.003436
426.000000	1160.674829	0.005980
426.100000	1164.109548	0.006382
426.200000	1161.832076	0.003849
426.300000	1160.025530	0.003491
426.400000	1158.036604	0.007113
426.500000	1159.131345	0.009536
426.600000	1163.333016	0.004671
426.700000	1161.004593	0.005483
426.800000	1162.373790	0.006076
426.900000	1159.986463	0.002733
427.000000	1160.170031	0.007604
427.100000	1160.143344	0.007843
427.200000	1158.745969	0.003812
427.300000	1158.497210	0.003864
427.400000	1161.059028	0.004785
427.500000	1160.183312	0.005696
427.600000	1160.214260	0.007001
427.700000	1161.662065	0.005814
427.800000	1161.211758	0.008063
427.900000	1162.211500	0.007172
428.000000	1161.247843	0.004904
428.100000	1161.658020	0.003066
428.200000	1156.566857	0.004730
428.300000	1159.753876	0.005881
428.400000	1159.933123	0.005668
428.500000	1162.937797	0.002585
428.600000	1158.791447	0.005109
428.700000	1162.181040	0.004907
428.800000	1161.621013	0.005050
428.900000	1161.507962	0.004484
429.000000	1159.284762	0.003472
429.100000	1158.335366	0.004658
429.200000	1159.685189	0.005686
429.300000	1160.644715	0.006105
429.400000	1159.243146	0.007829
429.500000	1161.264979	0.005111
429.600000	1164.065688	0.004772
429.700000	1157.452048	0.004405
429.800000	1157.584966	0.004675
429.900000	1163.339187	0.004720
430.000000	1162.832799	0.003762
430.100000	1158.957446	0.006215
430.200000	1163.233289	0.006676
430.300000	1160.367048	0.005360
430.400000	1159.995616	0.005221
430.500000	1157.727407	0.004647
430.600000	1163.970635	0.006801
430.700000	1161.610786	0.005999
430.800000	1161.367590	0.003958
430.900000	1160.414615	0.003952
431.000000	1160.086616	0.003152
431.100000	1160.682500	0.005146
431.200000	1160.149883	0.006893
431.300000	1159.838871	0.006982
431.400000	1161.730197	0.004618
431.500000	1162.922851	0.006292
431.600000	1159.533775	0.006457
431.700000	1159.524642	0.006507
431.800000	1161.228633	0.003975
431.900000	1159.291718	0.003255
432.000000	1158.221698	0.004561
432.100000	1159.947891	0.006799
432.200000	1159.885674	0.004880
432.300000	1158.962383	0.005126
432.400000	1159.975266	0.005383
432.500000	1164.122680	0.005887
432.600000	1160.220908	0.003915
432.700000	1158.108454	0.004275
432.800000	1158.841846	0.006236
432.900000	1161.150962	0.005945
433.000000	1162.007784	0.005106
433.100000	1159.662976	0.004235
433.200000	1160.504939	0.005390
433.300000	1161.375483	0.002847
433.400000	1160.102789	0.004037
433.500000	1160.627455	0.005131
433.600000	1163.511517	0.005617
433.700000	1162.295910	0.002767
433.800000	1159.959072	0.002364
433.900000	1159.072182	0.005099
434.000000	1159.769738	0.006280
434.100000	1161.093207	0.005001
434.200000	1159.744881	0.004229
434.300000	1160.730853	0.004464
434.400000	1160.712598	0.004149
434.500000	1158.081238	0.004759
434.600000	1158.158921	0.004028
434.700000	1163.032283	0.004114
434.800000	1161.411842	0.003583
434.900000	1160.914391	0.004851
435.000000	1160.535659	0.005444
435.100000	1160.615869	0.005696
435.200000	1160.223863	0.005420
435.300000	1160.595152	0.004719
435.400000	1161.426149	0.004713
435.500000	1160.372314	0.005552
435.600000	1158.806399	0.003974
435.700000	1160.516670	0.006529
435.800000	1162.432428	0.006852
435.900000	1161.111639	0.004265
436.000000	1160.195355	0.003509
436.100000	1158.823985	0.003697
436.200000	1161.542150	0.006047
436.300000	1162.233873	0.006081
436.400000	1160.252495	0.004727
436.500000	1158.793680	0.005095
436.600000	1160.413294	0.006123
436.700000	1157.978571	0.005280
436.800000	1158.602763	0.005855
436.900000	1159.727268	0.003202
437.000000	1160.736185	0.004660
437.100000	1161.173484	0.004344
437.200000	1160.837070	0.002039
437.300000	1159.485448	0.004841
437.400000	1160.020886	0.005128
437.500000	1159.530498	0.004642
437.600000	1159.673500	0.005298
437.700000	1160.249901	0.005104
437.800000	1159.016170	0.004981
437.900000	1159.776617	0.004397
438.000000	1161.826295	0.005363
438.100000	1161.839316	0.005566
438.200000	1159.719274	0.003173
438.300000	1158.178826	0.004302
438.400000	1159.966385	0.005482
438.500000	1161.782604	0.003780
438.600000	1160.511797	0.003421
438.700000	1160.989607	0.005582
438.800000	1160.809016	0.004702
438.900000	1161.314465	0.004905
439.000000	1160.055981	0.004720
439.100000	1159.254090	0.004764
439.200000	1160.493678	0.004746
439.300000	1160.375710	0.002741
439.400000	1159.673826	0.003756
439.500000	1160.309656	0.003336
439.600000	1159.106482	0.004954
439.700000	1160.507591	0.004687
439.800000	1161.571443	0.003624
439.900000	1161.817860	0.004363
440.000000	1160.600931	0.004254
440.100000	1159.259992	0.003823
440.200000	1160.117172	0.004843
440.300000	1161.526969	0.004586
440.400000	1159.783697	0.003468
440.500000	1160.006895	0.005183
440.600000	1159.970848	0.006222
440.700000	1160.429263	0.004969
440.800000	1160.616641	0.003325
440.900000	1159.783364	0.003189
441.000000	1160.444037	0.004180
441.100000	1160.805491	0.004232
441.200000	1160.410169	0.004095
441.300000	1159.485211	0.005242
441.400000	1160.089383	0.004546
441.500000	1159.729303	0.004769
441.600000	1160.471641	0.004504
441.700000	1159.331326	0.004456
441.800000	1160.595609	0.004525
441.900000	1159.059333	0.003364
442.000000	1159.544015	0.004098
442.100000	1161.042982	0.003994
442.200000	1160.355125	0.003249
442.300000	1159.666988	0.004282
442.400000	1160.490400	0.005453
442.500000	1160.499607	0.004862
442.600000	1160.422289	0.003859
442.700000	1159.896029	0.003033
442.800000	1160.904959	0.005062
442.900000	1160.248270	0.004971
443.000000	1160.010131	0.003314
443.100000	1159.483397	0.003312
443.200000	1159.958908	0.005099
443.300000	1160.395587	0.004720
443.400000	1160.824947	0.003059
443.500000	1160.447358	0.003854
443.600000	1160.659734	0.004072
443.700000	1161.017789	0.004101
443.800000	1160.504981	0.004066
443.900000	1160.185495	0.003872
444.000000	1159.039078	0.003600
444.100000	1159.695657	0.004382
444.200000	1159.726784	0.004156
444.300000	1160.224821	0.004094
444.400000	1161.209229	0.003281
444.500000	1160.084863	0.004225
444.600000	1161.098068	0.004248
444.700000	1160.983074	0.004097
444.800000	1159.787450	0.003831
444.900000	1160.275267	0.004098
445.000000	1160.062915	0.004228
445.100000	1160.926056	0.004897
445.200000	1160.707070	0.004072
445.300000	1159.529270	0.003079
445.400000	1159.847232	0.005400
445.500000	1161.254309	0.004799
445.600000	1160.575575	0.003442
445.700000	1159.974534	0.003501
445.800000	1159.316158	0.003692
445.900000	1160.725761	0.004023
446.000000	1162.093500	0.004069
446.100000	1160.870535	0.004036
446.200000	1160.094947	0.004852
446.300000	1160.622868	0.004278
446.400000	1160.244513	0.004037
446.500000	1161.446361	0.003896
446.600000	1160.093829	0.003835
446.700000	1160.688927	0.003652
446.800000	1160.078575	0.003240
446.900000	1159.638136	0.004098
447.000000	1160.887538	0.003833
447.100000	1160.528779	0.003355
447.200000	1159.972588	0.003673
447.300000	1161.065284	0.004318
447.400000	1161.656172	0.003215
447.500000	1160.357915	0.003469
447.600000	1160.117861	0.004304
447.700000	1160.223245	0.004318
447.800000	1161.289208	0.003660
447.900000	1160.355677	0.003279
448.000000	1159.427792	0.003998
448.100000	1159.875023	0.004137
448.200000	1160.600210	0.003774
448.300000	1161.469592	0.004236
448.400000	1161.394896	0.003952
448.500000	1160.055580	0.003629
448.600000	1160.759169	0.003849
448.700000	1160.455367	0.003815
448.800000	1161.100421	0.004506
448.900000	1161.594796	0.003517
449.000000	1160.369466	0.003347
449.100000	1159.955104	0.003488
449.200000	1161.419700	0.003628
449.300000	1160.601675	0.002825
449.400000	1160.367572	0.003185
449.500000	1160.820230	0.003655
449.600000	1161.011846	0.003129
449.700000	1160.806532	0.002981
449.800000	1160.228180	0.003880
449.900000	1160.426082	0.004520
450.000000	1160.538943	0.004104
450.100000	1160.487234	0.002963
450.200000	1160.219908	0.003255
450.300000	1158.910126	0.003758
450.400000	1159.866834	0.003996
450.500000	1160.721492	0.003828
450.600000	1160.496870	0.003314
450.700000	1160.130713	0.003695
450.800000	1160.045304	0.003654
450.900000	1160.162188	0.004104
451.000000	1160.755058	0.004137
451.100000	1161.273071	0.003673
451.200000	1160.431783	0.003386
451.300000	1160.101980	0.003948
451.400000	1160.472657	0.003694
451.500000	1161.110136	0.003148
451.600000	1160.672769	0.003500
451.700000	1160.119313	0.004096
451.800000	1160.479304	0.003471
451.900000	1160.511195	0.002718
452.000000	1160.243403	0.002808
452.100000	1160.166334	0.003416
452.200000	1160.407642	0.003819
452.300000	1161.064806	0.003814
452.400000	1160.206714	0.003096
452.500000	1159.944022	0.003536
452.600000	1159.981106	0.003842
452.700000	1160.333456	0.003608
452.800000	1160.348922	0.003071
452.900000	1160.174126	0.003271
453.000000	1160.290733	0.003000
453.100000	1159.912040	0.003408
453.200000	1160.382591	0.003901
453.300000	1160.314283	0.003133
453.400000	1160.540400	0.003418
453.500000	1160.123839	0.003468
453.600000	1160.012672	0.003290
453.700000	1160.146535	0.003554
453.800000	1160.751153	0.003394
453.900000	1160.630506	0.003372
454.000000	1160.569668	0.003539
454.100000	1160.071361	0.003147
454.200000	1160.143919	0.003179
454.300000	1160.266483	0.003250
454.400000	1160.355144	0.003175
454.500000	1160.723182	0.003608
454.600000	1160.858629	0.003440
454.700000	1160.646750	0.003123
454.800000	1160.416911	0.003495
454.900000	1160.944526	0.003457
455.000000	1160.198384	0.003639
455.100000	1160.165978	0.003406
455.200000	1160.512191	0.003109
455.300000	1160.649089	0.003200
455.400000	1160.302282	0.003001
455.500000	1160.406841	0.003187
455.600000	1160.572320	0.003193
455.700000	1160.705666	0.002924
455.800000	1160.179896	0.003018
455.900000	1160.285132	0.003562
456.000000	1160.083795	0.003326
456.100000	1160.221124	0.003119
456.200000	1160.550687	0.003414
456.300000	1160.734130	0.003450
456.400000	1160.706167	0.003516
456.500000	1160.341095	0.003080
456.600000	1160.526800	0.003177
456.700000	1160.409969	0.003208
456.800000	1160.432243	0.003263
456.900000	1160.243707	0.003084
457.000000	1160.485112	0.002886
457.100000	1160.684326	0.003154
457.200000	1160.530879	0.003324
457.300000	1160.270836	0.003076
457.400000	1160.259239	0.003384
457.500000	1160.451232	0.003014
457.600000	1160.634802	0.002727
457.700000	1160.461070	0.002748
457.800000	1160.397975	0.002788
457.900000	1160.287850	0.002866
458.000000	1160.404717	0.003205
458.100000	1160.875106	0.002964
458.200000	1160.491105	0.002874
458.300000	1160.288647	0.003060
458.400000	1160.204164	0.002723
458.500000	1160.469195	0.002936
458.600000	1160.561698	0.002901
458.700000	1160.250561	0.002943
458.800000	1160.290206	0.002975
458.900000	1160.558530	0.002849
459.000000	1160.474488	0.003025
459.100000	1160.475851	0.003145
459.200000	1160.176286	0.002891
459.300000	1160.343864	0.002768
459.400000	1160.734991	0.002606
459.500000	1160.439673	0.002693
459.600000	1160.386807	0.003060
459.700000	1160.430497	0.003089
459.800000	1160.487169	0.002919
459.900000	1160.428335	0.002769
460.000000	1160.541595	0.002702
460.100000	1160.156979	0.003152
460.200000	1160.421854	0.002942
460.300000	1160.471914	0.002599
460.400000	1160.505084	0.002804
460.500000	1160.377725	0.002767
460.600000	1160.114665	0.002873
460.700000	1160.184672	0.002879
460.800000	1160.399959	0.002810
460.900000	1160.699930	0.002933
461.000000	1160.560498	0.002876
461.100000	1160.243742	0.002755
461.200000	1160.519819	0.002721
461.300000	1160.356281	0.002777
461.400000	1160.203680	0.002934
461.500000	1160.374091	0.002884
461.600000	1160.391070	0.002657
461.700000	1160.303801	0.002706
461.800000	1160.344428	0.002937
461.900000	1160.445572	0.002954
462.000000	1160.316861	0.002844
462.100000	1160.323251	0.002622
462.200000	1160.078647	0.002638
462.300000	1160.279117	0.002736
462.400000	1160.332501	0.002823
462.500000	1160.216007	0.002788
462.600000	1160.313468	0.002759
462.700000	1160.483048	0.002603
462.800000	1160.394463	0.002642
462.900000	1160.330807	0.002793
463.000000	1160.443783	0.002723
463.100000	1160.592671	0.002661
463.200000	1160.452473	0.002563
463.300000	1160.380746	0.002651
463.400000	1160.302552	0.002853
463.500000	1160.328370	0.002736
463.600000	1160.474346	0.002751
463.700000	1160.758046	0.002729
463.800000	1160.460799	0.002530
463.900000	1160.320296	0.002507
464.000000	1160.458806	0.002543
464.100000	1160.502071	0.002561
464.200000	1160.357894	0.002505
464.300000	1160.178514	0.002595
464.400000	1160.316404	0.002454
464.500000	1160.483003	0.002568
464.600000	1160.579472	0.002639
464.700000	1160.440175	0.002652
464.800000	1160.547964	0.002555
464.900000	1160.464078	0.002438
465.000000	1160.471474	0.002450
465.100000	1160.515307	0.002564
465.200000	1160.434921	0.002620
465.300000	1160.347073	0.002622
465.400000	1160.436687	0.002443
465.500000	1160.417736	0.002442
465.600000	1160.491905	0.002599
465.700000	1160.344557	0.002536
465.800000	1160.516388	0.002553
465.900000	1160.457998	0.002419
466.000000	1160.511199	0.002442
466.100000	1160.360069	0.002385
466.200000	1160.220708	0.002411
466.300000	1160.435541	0.002514
466.400000	1160.473729	0.002532
466.500000	1160.423307	0.002352
466.600000	1160.403929	0.002446
466.700000	1160.433073	0.002420
466.800000	1160.468036	0.002434
466.900000	1160.505315	0.002361
467.000000	1160.347180	0.002278
467.100000	1160.275948	0.002439
467.200000	1160.390709	0.002462
467.300000	1160.417972	0.002247
467.400000	1160.438634	0.002301
467.500000	1160.483103	0.002340
467.600000	1160.377474	0.002312
467.700000	1160.347842	0.002194
467.800000	1160.387394	0.002076
467.900000	1160.457681	0.002286
468.000000	1160.380390	0.002262
468.100000	1160.378963	0.002240
468.200000	1160.437511	0.002317
468.300000	1160.416040	0.002219
468.400000	1160.235313	0.002273
468.500000	1160.296127	0.002406
468.600000	1160.424814	0.002223
468.700000	1160.343882	0.002067
468.800000	1160.287201	0.002236
468.900000	1160.343627	0.002283
469.000000	1160.483328	0.002269
469.100000	1160.502612	0.002148
469.200000	1160.433877	0.002175
469.300000	1160.328823	0.002369
469.400000	1160.402109	0.002241
469.500000	1160.489084	0.002113
469.600000	1160.428715	0.002142
469.700000	1160.388391	0.002180
469.800000	1160.411126	0.002236
469.900000	1160.443508	0.002151
470.000000	1160.396546	0.002173
470.100000	1160.385604	0.002236
470.200000	1160.434370	0.002208
470.300000	1160.437114	0.002181
470.400000	1160.488524	0.002094
470.500000	1160.398141	0.002070
470.600000	1160.347595	0.002162
470.700000	1160.368364	0.002187
470.800000	1160.359654	0.002130
470.900000	1160.299155	0.002111
471.000000	1160.327768	0.002009
471.100000	1160.437429	0.002164
471.200000	1160.480487	0.002192
471.300000	1160.485927	0.002086
471.400000	1160.415528	0.002059
471.500000	1160.316441	0.002069
471.600000	1160.397659	0.002106
471.700000	1160.419976	0.002075
471.800000	1160.378633	0.002007
471.900000	1160.322131	0.001981
472.000000	1160.360640	0.002028
472.100000	1160.373802	0.002064
472.200000	1160.387479	0.002082
472.300000	1160.412551	0.002016
472.400000	1160.391237	0.001988
472.500000	1160.423818	0.002025
472.600000	1160.423080	0.002040
472.700000	1160.347710	0.002002
472.800000	1160.437401	0.001923
472.900000	1160.517266	0.001852
473.000000	1160.438003	0.001984
473.100000	1160.368918	0.001993
473.200000	1160.414633	0.001940
473.300000	1160.376587	0.001928
473.400000	1160.356294	0.001960
473.500000	1160.423332	0.001966
473.600000	1160.411758	0.001922
473.700000	1160.372555	0.001890
473.800000	1160.385704	0.001947
473.900000	1160.420014	0.001951
474.000000	1160.450432	0.001851
474.100000	1160.420375	0.001840
474.200000	1160.389428	0.001826
474.300000	1160.421727	0.001853
474.400000	1160.431815	0.001864
474.500000	1160.469191	0.001787
474.600000	1160.408666	0.001804
474.700000	1160.416290	0.001817
474.800000	1160.396622	0.001874
474.900000	1160.411865	0.001881
475.000000	1160.416875	0.001831
475.100000	1160.372407	0.001804
475.200000	1160.383921	0.001802
475.300000	1160.442085	0.001823
475.400000	1160.471817	0.001806
475.500000	1160.460040	0.001794
475.600000	1160.454547	0.001784
475.700000	1160.443482	0.001780
475.800000	1160.405922	0.001726
475.900000	1160.390173	0.001679
476.000000	1160.330940	0.001730
476.100000	1160.359382	0.001706
476.200000	1160.481192	0.001687
476.300000	1160.435725	0.001726
476.400000	1160.363701	0.001723
476.500000	1160.381570	0.001750
476.600000	1160.462105	0.001714
476.700000	1160.436031	0.001691
476.800000	1160.404945	0.001665
476.900000	1160.386212	0.001623
477.000000	1160.408628	0.001616
477.100000	1160.388522	0.001660
477.200000	1160.418671	0.001640
477.300000	1160.396715	0.001642
477.400000	1160.395839	0.001640
477.500000	1160.393014	0.001614
477.600000	1160.396852	0.001641
477.700000	1160.426586	0.001628
477.800000	1160.422304	0.001572
477.900000	1160.420900	0.001537
478.000000	1160.446238	0.001562
478.100000	1160.397585	0.001604
478.200000	1160.365981	0.001574
478.300000	1160.392091	0.001555
478.400000	1160.403232	0.001558
478.500000	1160.420212	0.001535
478.600000	1160.413170	0.001527
478.700000	1160.371407	0.001540
478.800000	1160.363966	0.001538
478.900000	1160.366244	0.001521
479.000000	1160.367761	0.001512
479.100000	1160.403294	0.001478
479.200000	1160.419066	0.001507
479.300000	1160.435861	0.001512
479.400000	1160.412274	0.001486
479.500000	1160.439179	0.001471
479.600000	1160.445396	0.001460
479.700000	1160.393270	0.001438
479.800000	1160.386995	0.001456
479.900000	1160.409008	0.001468
480.000000	1160.429853	0.001457
480.100000	1160.396990	0.001445
480.200000	1160.399073	0.001433
480.300000	1160.416810	0.001443
480.400000	1160.393299	0.001432
480.500000	1160.394802	0.001426
480.600000	1160.418592	0.001401
480.700000	1160.414167	0.001386
480.800000	1160.390633	0.001401
480.900000	1160.388558	0.001380
481.000000	1160.378011	0.001382
481.100000	1160.381360	0.001385
481.200000	1160.400563	0.001334
481.300000	1160.394812	0.001332
481.400000	1160.391497	0.001363
481.500000	1160.390074	0.001355
481.600000	1160.442653	0.001331
481.700000	1160.446715	0.001315
481.800000	1160.392649	0.001334
481.900000	1160.400901	0.001336
482.000000	1160.413772	0.001311
482.100000	1160.439388	0.001312
482.200000	1160.440531	0.001285
482.300000	1160.431064	0.001259
482.400000	1160.414400	0.001254
482.500000	1160.386051	0.001246
482.600000	1160.384158	0.001246
482.700000	1160.389316	0.001264
482.800000	1160.402139	0.001238
482.900000	1160.411710	0.001224
483.000000	1160.412739	0.001239
483.100000	1160.405896	0.001234
483.200000	1160.406319	0.001254
483.300000	1160.420820	0.001238
483.400000	1160.422524	0.001170
483.500000	1160.417444	0.001157
483.600000	1160.438702	0.001175
483.700000	1160.449692	0.001183
483.800000	1160.427331	0.001176
483.900000	1160.407127	0.001154
484.000000	1160.417950	0.001155
484.100000	1160.423804	0.001179
484.200000	1160.434422	0.001149
484.300000	1160.437569	0.001129
484.400000	1160.413991	0.001120
484.500000	1160.418237	0.001104
484.600000	1160.427861	0.001112
484.700000	1160.427164	0.001117
484.800000	1160.428623	0.001099
484.900000	1160.430595	0.001091
485.000000	1160.417786	0.001089
485.100000	1160.403729	0.001084
485.200000	1160.395085	0.001075
485.300000	1160.401517	0.001070
485.400000	1160.399023	0.001061
485.500000	1160.418558	0.001044
485.600000	1160.439403	0.001029
485.700000	1160.425472	0.001033
485.800000	1160.425988	0.001029
485.900000	1160.422899	0.001010
486.000000	1160.428451	0.001016
486.100000	1160.437549	0.001009
486.200000	1160.420401	0.000966
486.300000	1160.401468	0.000960
486.400000	1160.405240	0.000973
486.500000	1160.418330	0.000979
486.600000	1160.411957	0.000979
486.700000	1160.403455	0.000968
486.800000	1160.407039	0.000965
486.900000	1160.400519	0.000958
487.000000	1160.405745	0.000943
487.100000	1160.417327	0.000917
487.200000	1160.412311	0.000930
487.300000	1160.397290	0.000931
487.400000	1160.394302	0.000918
487.500000	1160.416199	0.000897
487.600000	1160.443609	0.000867
487.700000	1160.419933	0.000867
487.800000	1160.397851	0.000872
487.900000	1160.427906	0.000863
488.000000	1160.432562	0.000867
488.100000	1160.417125	0.000874
488.200000	1160.413977	0.000845
488.300000	1160.407562	0.000837
488.400000	1160.408724	0.000832
488.500000	1160.405764	0.000827
488.600000	1160.409059	0.000831
488.700000	1160.421334	0.000820
488.800000	1160.421812	0.000816
488.900000	1160.406204	0.000809
489.000000	1160.399487	0.000785
489.100000	1160.402863	0.000778
489.200000	1160.401997	0.000797
489.300000	1160.400382	0.000791
489.400000	1160.398893	0.000773
489.500000	1160.401781	0.000759
489.600000	1160.422006	0.000746
489.700000	1160.432846	0.000736
489.800000	1160.426710	0.000726
489.900000	1160.421316	0.000724
490.000000	1160.423818	0.000732
490.100000	1160.423546	0.000726
490.200000	1160.411261	0.000711
490.300000	1160.408843	0.000694
490.400000	1160.409303	0.000680
490.500000	1160.408828	0.000683
490.600000	1160.415560	0.000689
490.700000	1160.419637	0.000676
490.800000	1160.419931	0.000660
490.900000	1160.406866	0.000654
491.000000	1160.402336	0.000655
491.100000	1160.404967	0.000651
491.200000	1160.397809	0.000650
491.300000	1160.398054	0.000641
491.400000	1160.401141	0.000627
491.500000	1160.422184	0.000612
491.600000	1160.438906	0.000599
491.700000	1160.427554	0.000594
491.800000	1160.415360	0.000587
491.900000	1160.410842	0.000565
492.000000	1160.418467	0.000569
492.100000	1160.427707	0.000586
492.200000	1160.426020	0.000558
492.300000	1160.417234	0.000550
492.400000	1160.406630	0.000556
492.500000	1160.408766	0.000548
492.600000	1160.408991	0.000535
492.700000	1160.407267	0.000528
492.800000	1160.413406	0.000520
492.900000	1160.416522	0.000512
493.000000	1160.413850	0.000499
493.100000	1160.402912	0.000497
493.200000	1160.397584	0.000505
493.300000	1160.402546	0.000490
493.400000	1160.376287	0.000475
493.500000	1160.417200	0.000462
493.600000	1160.474119	0.000446
493.700000	1160.436561	0.000448
493.800000	1160.433309	0.000445
493.900000	1160.432232	0.000430
494.000000	1160.433437	0.000436
494.100000	1160.452075	0.000438
494.200000	1160.465704	0.000398
494.300000	1160.449059	0.000373
494.400000	1160.415541	0.000374
494.500000	1160.408368	0.000379
494.600000	1160.403019	0.000386
494.700000	1160.404142	0.000385
494.800000	1160.414756	0.000380
494.900000	1160.396734	0.000369
495.000000	1160.415462	0.000359
495.100000	1160.441635	0.000342
495.200000	1160.426029	0.000328
495.300000	1160.417223	0.000324
495.400000	1160.424467	0.000326
495.500000	1160.412623	0.000325
495.600000	1160.395882	0.000322
495.700000	1160.405666	0.000314
495.800000	1160.411281	0.000305
495.900000	1160.412697	0.000295
496.000000	1160.411482	0.000289
496.100000	1160.411378	0.000285
496.200000	1160.413498	0.000276
496.300000	1160.413428	0.000268
496.400000	1160.411922	0.000261
496.500000	1160.413010	0.000253
496.600000	1160.414395	0.000244
496.700000	1160.413115	0.000238
496.800000	1160.412619	0.000231
496.900000	1160.412803	0.000224
497.000000	1160.413617	0.000216
497.100000	1160.414116	0.000209
497.200000	1160.413944	0.000202
497.300000	1160.413939	0.000194
497.400000	1160.414227	0.000187
497.500000	1160.413531	0.000181
497.600000	1160.412939	0.000174
497.700000	1160.413420	0.000167
497.800000	1160.413400	0.000159
497.900000	1160.413536	0.000152
498.000000	1160.413785	0.000145
498.100000	1160.413959	0.000137
498.200000	1160.414113	0.000130
498.300000	1160.414420	0.000123
498.400000	1160.415573	0.000116
498.500000	1160.413576	0.000108
498.600000	1160.411512	0.000101
498.700000	1160.412732	9.374818E-5
498.800000	1160.413036	8.657681E-5
498.900000	1160.413183	7.938722E-5
499.000000	1160.413272	7.217526E-5
499.100000	1160.413325	6.494834E-5
499.200000	1160.413354	5.773849E-5
499.300000	1160.413360	5.052637E-5
499.400000	1160.413275	4.330207E-5
499.500000	1160.413480	3.610822E-5
499.600000	1160.413681	2.888594E-5
499.700000	1160.413584	2.166129E-5
499.800000	1160.413568	1.444063E-5
499.900000	1160.413562	7.220405E-6
